#                                                           
#  /$$     /$$ /$$$$$$  /$$      /$$ /$$$$$$$   /$$$$$$     
# |  $$   /$$//$$__  $$| $$$    /$$$| $$__  $$ /$$__  $$    
#  \  $$ /$$/| $$  \ $$| $$$$  /$$$$| $$  \ $$| $$  \ $$    
#   \  $$$$/ | $$$$$$$$| $$ $$/$$ $$| $$$$$$$ | $$  | $$    
#    \  $$/  | $$__  $$| $$  $$$| $$| $$__  $$| $$  | $$    
#     | $$   | $$  | $$| $$\  $ | $$| $$  \ $$| $$  | $$    
#     | $$   | $$  | $$| $$ \/  | $$| $$$$$$$/|  $$$$$$/    
#     |__/   |__/  |__/|__/     |__/|_______/  \______/     
#                                                           
# GPL Version 4.4.0 Revision 148. (Based on r.16920 h.961a8d
#                  MPI+SLK+OpenMP Build                     
#               http://www.yambo-code.org                   
#
# Absorption @ Q(1) [q->0 direction] :0.1000E-4  0.000     0.000   
#
#
# - Energies      are  Analyt. E
# - Wavefunctions are +AMGB (for 2D systems)(C)
#
# - The Green`s function is Retarded -
# - Using the Length Gauge -
# - [r,Vnl] *is* included -
#
#
#    E/ev[1]      EPS-Im[2]    EPS-Re[3]    EPSo-Im[4]   EPSo-Re[5]
#
    0.000000     0.000000     1.649686     0.000000     1.692111
   0.1001E-1    0.4355E-4     1.650       0.5088E-4     1.692   
   0.2002E-1    0.8710E-4     1.650       0.1018E-3     1.692   
   0.3003E-1    0.1307E-3     1.650       0.1527E-3     1.692   
   0.4004E-1    0.1742E-3     1.650       0.2035E-3     1.692   
   0.5005E-1    0.2178E-3     1.650       0.2545E-3     1.692   
   0.6006E-1    0.2614E-3     1.650       0.3054E-3     1.692   
   0.7007E-1    0.3050E-3     1.650       0.3563E-3     1.692   
   0.8008E-1    0.3486E-3     1.650       0.4072E-3     1.692   
   0.9009E-1    0.3922E-3     1.650       0.4582E-3     1.692   
   0.1001       0.4358E-3     1.650       0.5092E-3     1.692   
   0.1101       0.4795E-3     1.650       0.5602E-3     1.692   
   0.1201       0.5231E-3     1.650       0.6112E-3     1.692   
   0.1301       0.5668E-3     1.650       0.6623E-3     1.693   
   0.1401       0.6106E-3     1.650       0.7134E-3     1.693   
   0.1502       0.6543E-3     1.650       0.7645E-3     1.693   
   0.1602       0.6981E-3     1.650       0.8157E-3     1.693   
   0.1702       0.7419E-3     1.650       0.8668E-3     1.693   
   0.1802       0.7857E-3     1.650       0.9181E-3     1.693   
   0.1902       0.8296E-3     1.650       0.9694E-3     1.693   
   0.2002       0.8735E-3     1.651       0.1021E-2     1.693   
   0.2102       0.9174E-3     1.651       0.1072E-2     1.693   
   0.2202       0.9614E-3     1.651       0.1123E-2     1.693   
   0.2302       0.1005E-2     1.651       0.1175E-2     1.693   
   0.2402       0.1049E-2     1.651       0.1226E-2     1.694   
   0.2503       0.1094E-2     1.651       0.1278E-2     1.694   
   0.2603       0.1138E-2     1.651       0.1330E-2     1.694   
   0.2703       0.1182E-2     1.651       0.1381E-2     1.694   
   0.2803       0.1226E-2     1.651       0.1433E-2     1.694   
   0.2903       0.1270E-2     1.652       0.1485E-2     1.694   
   0.3003       0.1315E-2     1.652       0.1537E-2     1.694   
   0.3103       0.1359E-2     1.652       0.1589E-2     1.695   
   0.3203       0.1404E-2     1.652       0.1641E-2     1.695   
   0.3303       0.1448E-2     1.652       0.1693E-2     1.695   
   0.3403       0.1493E-2     1.652       0.1745E-2     1.695   
   0.3504       0.1537E-2     1.652       0.1797E-2     1.695   
   0.3604       0.1582E-2     1.653       0.1850E-2     1.695   
   0.3704       0.1627E-2     1.653       0.1902E-2     1.696   
   0.3804       0.1672E-2     1.653       0.1955E-2     1.696   
      0.3904       0.0017       1.6530       0.0020       1.6960
      0.4004       0.0018       1.6532       0.0021       1.6962
      0.4104       0.0018       1.6534       0.0021       1.6964
      0.4204       0.0019       1.6535       0.0022       1.6966
      0.4304       0.0019       1.6537       0.0022       1.6968
      0.4404       0.0019       1.6539       0.0023       1.6971
      0.4505       0.0020       1.6541       0.0023       1.6973
      0.4605       0.0020       1.6543       0.0024       1.6975
      0.4705       0.0021       1.6545       0.0024       1.6978
      0.4805       0.0021       1.6547       0.0025       1.6980
      0.4905       0.0022       1.6550       0.0025       1.6983
      0.5005       0.0022       1.6552       0.0026       1.6985
      0.5105       0.0023       1.6554       0.0026       1.6988
      0.5205       0.0023       1.6556       0.0027       1.6991
      0.5305       0.0024       1.6559       0.0028       1.6993
      0.5405       0.0024       1.6561       0.0028       1.6996
      0.5506       0.0024       1.6563       0.0029       1.6999
      0.5606       0.0025       1.6566       0.0029       1.7002
      0.5706       0.0025       1.6568       0.0030       1.7005
      0.5806       0.0026       1.6571       0.0030       1.7008
      0.5906       0.0026       1.6574       0.0031       1.7011
      0.6006       0.0027       1.6576       0.0031       1.7014
      0.6106       0.0027       1.6579       0.0032       1.7017
      0.6206       0.0028       1.6582       0.0032       1.7020
      0.6306       0.0028       1.6584       0.0033       1.7024
      0.6406       0.0029       1.6587       0.0034       1.7027
      0.6507       0.0029       1.6590       0.0034       1.7030
      0.6607       0.0030       1.6593       0.0035       1.7034
      0.6707       0.0030       1.6596       0.0035       1.7037
      0.6807       0.0031       1.6599       0.0036       1.7041
      0.6907       0.0031       1.6602       0.0036       1.7044
      0.7007       0.0032       1.6605       0.0037       1.7048
      0.7107       0.0032       1.6609       0.0038       1.7052
      0.7207       0.0033       1.6612       0.0038       1.7056
      0.7307       0.0033       1.6615       0.0039       1.7059
      0.7407       0.0034       1.6618       0.0039       1.7063
      0.7508       0.0034       1.6622       0.0040       1.7067
      0.7608       0.0034       1.6625       0.0040       1.7071
      0.7708       0.0035       1.6629       0.0041       1.7075
      0.7808       0.0035       1.6632       0.0042       1.7079
      0.7908       0.0036       1.6636       0.0042       1.7084
      0.8008       0.0036       1.6639       0.0043       1.7088
      0.8108       0.0037       1.6643       0.0043       1.7092
      0.8208       0.0037       1.6647       0.0044       1.7096
      0.8308       0.0038       1.6651       0.0045       1.7101
      0.8408       0.0038       1.6654       0.0045       1.7105
      0.8509       0.0039       1.6658       0.0046       1.7110
      0.8609       0.0039       1.6662       0.0046       1.7115
      0.8709       0.0040       1.6666       0.0047       1.7119
      0.8809       0.0040       1.6670       0.0047       1.7124
      0.8909       0.0041       1.6674       0.0048       1.7129
      0.9009       0.0042       1.6678       0.0049       1.7134
      0.9109       0.0042       1.6682       0.0049       1.7138
      0.9209       0.0043       1.6687       0.0050       1.7143
      0.9309       0.0043       1.6691       0.0051       1.7148
      0.9409       0.0044       1.6695       0.0051       1.7153
      0.9510       0.0044       1.6700       0.0052       1.7159
      0.9610       0.0045       1.6704       0.0052       1.7164
      0.9710       0.0045       1.6709       0.0053       1.7169
      0.9810       0.0046       1.6713       0.0054       1.7174
      0.9910       0.0046       1.6718       0.0054       1.7180
      1.0010       0.0047       1.6722       0.0055       1.7185
      1.0110       0.0047       1.6727       0.0056       1.7191
      1.0210       0.0048       1.6732       0.0056       1.7196
      1.0310       0.0048       1.6737       0.0057       1.7202
      1.0410       0.0049       1.6742       0.0057       1.7208
      1.0511       0.0049       1.6746       0.0058       1.7214
      1.0611       0.0050       1.6751       0.0059       1.7219
      1.0711       0.0051       1.6756       0.0059       1.7225
      1.0811       0.0051       1.6762       0.0060       1.7231
      1.0911       0.0052       1.6767       0.0061       1.7237
      1.1011       0.0052       1.6772       0.0061       1.7243
      1.1111       0.0053       1.6777       0.0062       1.7250
      1.1211       0.0053       1.6782       0.0063       1.7256
      1.1311       0.0054       1.6788       0.0063       1.7262
      1.1411       0.0055       1.6793       0.0064       1.7268
      1.1512       0.0055       1.6799       0.0065       1.7275
      1.1612       0.0056       1.6804       0.0065       1.7281
      1.1712       0.0056       1.6810       0.0066       1.7288
      1.1812       0.0057       1.6815       0.0067       1.7295
      1.1912       0.0057       1.6821       0.0068       1.7301
      1.2012       0.0058       1.6827       0.0068       1.7308
      1.2112       0.0059       1.6833       0.0069       1.7315
      1.2212       0.0059       1.6839       0.0070       1.7322
      1.2312       0.0060       1.6845       0.0070       1.7329
      1.2412       0.0060       1.6851       0.0071       1.7336
      1.2513       0.0061       1.6857       0.0072       1.7343
      1.2613       0.0062       1.6863       0.0072       1.7350
      1.2713       0.0062       1.6869       0.0073       1.7358
      1.2813       0.0063       1.6875       0.0074       1.7365
      1.2913       0.0063       1.6881       0.0075       1.7372
      1.3013       0.0064       1.6888       0.0075       1.7380
      1.3113       0.0065       1.6894       0.0076       1.7387
      1.3213       0.0065       1.6901       0.0077       1.7395
      1.3313       0.0066       1.6907       0.0078       1.7403
      1.3413       0.0066       1.6914       0.0078       1.7411
      1.3514       0.0067       1.6921       0.0079       1.7418
      1.3614       0.0068       1.6927       0.0080       1.7426
      1.3714       0.0068       1.6934       0.0081       1.7434
      1.3814       0.0069       1.6941       0.0081       1.7443
      1.3914       0.0070       1.6948       0.0082       1.7451
      1.4014       0.0070       1.6955       0.0083       1.7459
      1.4114       0.0071       1.6962       0.0084       1.7467
      1.4214       0.0072       1.6969       0.0085       1.7476
      1.4314       0.0072       1.6976       0.0085       1.7484
      1.4414       0.0073       1.6984       0.0086       1.7493
      1.4515       0.0074       1.6991       0.0087       1.7501
      1.4615       0.0074       1.6998       0.0088       1.7510
      1.4715       0.0075       1.7006       0.0089       1.7519
      1.4815       0.0076       1.7013       0.0089       1.7528
      1.4915       0.0076       1.7021       0.0090       1.7537
      1.5015       0.0077       1.7028       0.0091       1.7546
      1.5115       0.0078       1.7036       0.0092       1.7555
      1.5215       0.0078       1.7044       0.0093       1.7564
      1.5315       0.0079       1.7052       0.0094       1.7574
      1.5415       0.0080       1.7060       0.0094       1.7583
      1.5516       0.0081       1.7068       0.0095       1.7592
      1.5616       0.0081       1.7076       0.0096       1.7602
      1.5716       0.0082       1.7084       0.0097       1.7612
      1.5816       0.0083       1.7092       0.0098       1.7621
      1.5916       0.0083       1.7101       0.0099       1.7631
      1.6016       0.0084       1.7109       0.0100       1.7641
      1.6116       0.0085       1.7117       0.0101       1.7651
      1.6216       0.0086       1.7126       0.0101       1.7661
      1.6316       0.0086       1.7134       0.0102       1.7671
      1.6416       0.0087       1.7143       0.0103       1.7682
      1.6517       0.0088       1.7152       0.0104       1.7692
      1.6617       0.0089       1.7161       0.0105       1.7702
      1.6717       0.0089       1.7170       0.0106       1.7713
      1.6817       0.0090       1.7179       0.0107       1.7724
      1.6917       0.0091       1.7188       0.0108       1.7734
      1.7017       0.0092       1.7197       0.0109       1.7745
      1.7117       0.0093       1.7206       0.0110       1.7756
      1.7217       0.0093       1.7215       0.0111       1.7767
      1.7317       0.0094       1.7225       0.0112       1.7778
      1.7417       0.0095       1.7234       0.0113       1.7789
      1.7518       0.0096       1.7244       0.0114       1.7801
      1.7618       0.0097       1.7253       0.0115       1.7812
      1.7718       0.0097       1.7263       0.0116       1.7824
      1.7818       0.0098       1.7273       0.0117       1.7835
      1.7918       0.0099       1.7282       0.0118       1.7847
      1.8018       0.0100       1.7292       0.0119       1.7859
     1.81181      0.01007      1.73024      0.01198      1.78707
     1.82182      0.01015      1.73125      0.01208      1.78828
     1.83183      0.01024      1.73227      0.01219      1.78949
     1.84184      0.01033      1.73329      0.01229      1.79071
     1.85185      0.01041      1.73433      0.01240      1.79194
     1.86186      0.01050      1.73537      0.01251      1.79319
     1.87187      0.01059      1.73643      0.01261      1.79444
     1.88188      0.01068      1.73749      0.01272      1.79571
     1.89189      0.01077      1.73856      0.01283      1.79698
     1.90190      0.01086      1.73964      0.01294      1.79827
     1.91191      0.01095      1.74073      0.01306      1.79957
     1.92192      0.01104      1.74183      0.01317      1.80088
     1.93193      0.01113      1.74294      0.01328      1.80220
     1.94194      0.01122      1.74405      0.01340      1.80353
     1.95195      0.01132      1.74518      0.01351      1.80487
     1.96196      0.01141      1.74631      0.01363      1.80623
     1.97197      0.01151      1.74746      0.01374      1.80760
     1.98198      0.01160      1.74861      0.01386      1.80897
     1.99199      0.01170      1.74978      0.01398      1.81036
     2.00200      0.01180      1.75095      0.01410      1.81177
     2.01201      0.01190      1.75213      0.01422      1.81318
     2.02202      0.01200      1.75333      0.01434      1.81461
     2.03203      0.01210      1.75453      0.01447      1.81605
     2.04204      0.01220      1.75574      0.01459      1.81750
     2.05205      0.01230      1.75696      0.01472      1.81896
     2.06206      0.01240      1.75820      0.01484      1.82044
     2.07207      0.01250      1.75944      0.01497      1.82192
     2.08208      0.01261      1.76070      0.01510      1.82343
     2.09209      0.01271      1.76196      0.01523      1.82494
     2.10210      0.01282      1.76323      0.01536      1.82647
     2.11211      0.01292      1.76452      0.01549      1.82801
     2.12212      0.01303      1.76582      0.01563      1.82956
     2.13213      0.01314      1.76712      0.01576      1.83113
     2.14214      0.01325      1.76844      0.01590      1.83271
     2.15215      0.01336      1.76977      0.01603      1.83430
     2.16216      0.01347      1.77111      0.01617      1.83591
     2.17217      0.01358      1.77246      0.01631      1.83753
     2.18218      0.01370      1.77382      0.01645      1.83917
     2.19219      0.01381      1.77520      0.01660      1.84082
     2.20220      0.01393      1.77658      0.01674      1.84248
     2.21221      0.01404      1.77798      0.01688      1.84416
     2.22222      0.01416      1.77939      0.01703      1.84585
     2.23223      0.01428      1.78080      0.01718      1.84756
     2.24224      0.01440      1.78224      0.01733      1.84928
     2.25225      0.01452      1.78368      0.01748      1.85102
     2.26226      0.01464      1.78514      0.01763      1.85277
     2.27227      0.01476      1.78660      0.01778      1.85454
     2.28228      0.01489      1.78808      0.01794      1.85632
     2.29229      0.01501      1.78958      0.01809      1.85812
     2.30230      0.01514      1.79108      0.01825      1.85993
     2.31231      0.01527      1.79260      0.01841      1.86176
     2.32232      0.01539      1.79413      0.01857      1.86361
     2.33233      0.01552      1.79567      0.01874      1.86547
     2.34234      0.01565      1.79723      0.01890      1.86735
     2.35235      0.01579      1.79880      0.01907      1.86924
     2.36236      0.01592      1.80038      0.01923      1.87115
     2.37237      0.01605      1.80198      0.01940      1.87308
     2.38238      0.01619      1.80359      0.01957      1.87503
     2.39239      0.01633      1.80521      0.01975      1.87699
     2.40240      0.01647      1.80685      0.01992      1.87897
     2.41241      0.01661      1.80850      0.02010      1.88097
     2.42242      0.01675      1.81016      0.02028      1.88298
     2.43243      0.01689      1.81184      0.02046      1.88501
     2.44244      0.01704      1.81354      0.02064      1.88706
     2.45245      0.01718      1.81524      0.02082      1.88913
     2.46246      0.01733      1.81696      0.02101      1.89122
     2.47247      0.01748      1.81870      0.02120      1.89332
     2.48248      0.01763      1.82045      0.02139      1.89545
     2.49249      0.01778      1.82222      0.02158      1.89759
     2.50250      0.01793      1.82400      0.02177      1.89976
     2.51251      0.01809      1.82580      0.02197      1.90194
     2.52252      0.01824      1.82761      0.02217      1.90414
     2.53253      0.01840      1.82944      0.02237      1.90636
     2.54254      0.01856      1.83129      0.02257      1.90860
     2.55255      0.01872      1.83315      0.02278      1.91086
     2.56256      0.01888      1.83502      0.02298      1.91315
     2.57257      0.01905      1.83691      0.02319      1.91545
     2.58258      0.01921      1.83882      0.02340      1.91777
     2.59259      0.01938      1.84075      0.02362      1.92012
     2.60260      0.01955      1.84269      0.02384      1.92249
     2.61261      0.01972      1.84465      0.02405      1.92488
     2.62262      0.01990      1.84663      0.02428      1.92729
     2.63263      0.02007      1.84862      0.02450      1.92972
     2.64264      0.02025      1.85063      0.02473      1.93217
     2.65265      0.02043      1.85266      0.02496      1.93465
     2.66266      0.02061      1.85471      0.02519      1.93715
     2.67267      0.02079      1.85678      0.02543      1.93968
     2.68268      0.02098      1.85886      0.02566      1.94222
     2.69269      0.02117      1.86096      0.02590      1.94480
     2.70270      0.02136      1.86309      0.02615      1.94739
     2.71271      0.02155      1.86523      0.02639      1.95001
     2.72272      0.02174      1.86738      0.02664      1.95266
     2.73273      0.02194      1.86956      0.02690      1.95532
     2.74274      0.02214      1.87176      0.02715      1.95802
     2.75275      0.02234      1.87398      0.02741      1.96074
     2.76276      0.02254      1.87622      0.02767      1.96349
     2.77277      0.02275      1.87848      0.02794      1.96626
     2.78278      0.02295      1.88076      0.02821      1.96906
     2.79279      0.02316      1.88306      0.02848      1.97188
     2.80280      0.02338      1.88538      0.02875      1.97474
     2.81281      0.02359      1.88772      0.02903      1.97762
     2.82282      0.02381      1.89008      0.02931      1.98052
     2.83283      0.02403      1.89247      0.02960      1.98346
     2.84284      0.02425      1.89488      0.02989      1.98643
     2.85285      0.02448      1.89730      0.03018      1.98942
     2.86286      0.02471      1.89976      0.03048      1.99244
     2.87287      0.02494      1.90223      0.03078      1.99550
     2.88288      0.02517      1.90473      0.03108      1.99858
     2.89289      0.02541      1.90725      0.03139      2.00169
     2.90290      0.02565      1.90980      0.03171      2.00484
     2.91291      0.02589      1.91237      0.03202      2.00801
     2.92292      0.02614      1.91496      0.03234      2.01122
     2.93293      0.02638      1.91758      0.03267      2.01446
     2.94294      0.02664      1.92022      0.03300      2.01773
     2.95295      0.02689      1.92289      0.03334      2.02104
     2.96296      0.02715      1.92558      0.03367      2.02437
     2.97297      0.02741      1.92830      0.03402      2.02775
     2.98298      0.02768      1.93105      0.03437      2.03115
     2.99299      0.02795      1.93382      0.03472      2.03459
     3.00300      0.02822      1.93662      0.03508      2.03807
     3.01301      0.02849      1.93945      0.03544      2.04158
     3.02302      0.02877      1.94230      0.03581      2.04513
     3.03303      0.02906      1.94518      0.03618      2.04872
     3.04304      0.02934      1.94809      0.03656      2.05234
     3.05305      0.02963      1.95103      0.03695      2.05600
     3.06306      0.02993      1.95400      0.03734      2.05970
     3.07307      0.03023      1.95700      0.03773      2.06344
     3.08308      0.03053      1.96002      0.03813      2.06722
     3.09309      0.03084      1.96308      0.03854      2.07103
     3.10310      0.03115      1.96617      0.03895      2.07489
     3.11311      0.03146      1.96929      0.03937      2.07879
     3.12312      0.03178      1.97244      0.03980      2.08273
     3.13313      0.03211      1.97562      0.04023      2.08672
     3.14314      0.03244      1.97884      0.04067      2.09074
     3.15315      0.03277      1.98209      0.04111      2.09481
     3.16316      0.03311      1.98537      0.04157      2.09893
     3.17317      0.03345      1.98868      0.04203      2.10309
     3.18318      0.03380      1.99203      0.04249      2.10730
     3.19319      0.03415      1.99542      0.04296      2.11155
     3.20320      0.03451      1.99883      0.04345      2.11585
     3.21321      0.03488      2.00229      0.04393      2.12020
     3.22322      0.03525      2.00578      0.04443      2.12459
     3.23323      0.03562      2.00931      0.04493      2.12904
     3.24324      0.03600      2.01288      0.04544      2.13354
     3.25325      0.03639      2.01648      0.04596      2.13808
     3.26326      0.03678      2.02012      0.04649      2.14268
     3.27327      0.03717      2.02380      0.04703      2.14733
     3.28328      0.03758      2.02752      0.04758      2.15204
     3.29329      0.03799      2.03128      0.04813      2.15680
     3.30330      0.03840      2.03509      0.04869      2.16161
     3.31331      0.03883      2.03893      0.04927      2.16648
     3.32332      0.03926      2.04282      0.04985      2.17141
     3.33333      0.03969      2.04674      0.05044      2.17640
     3.34334      0.04013      2.05072      0.05104      2.18144
     3.35335      0.04058      2.05473      0.05166      2.18655
     3.36336      0.04104      2.05879      0.05228      2.19172
     3.37337      0.04151      2.06290      0.05292      2.19694
     3.38338      0.04198      2.06705      0.05356      2.20224
     3.39339      0.04246      2.07125      0.05422      2.20759
     3.40340      0.04294      2.07550      0.05489      2.21301
     3.41341      0.04344      2.07980      0.05557      2.21850
     3.42342      0.04394      2.08414      0.05626      2.22406
     3.43343      0.04446      2.08854      0.05696      2.22968
     3.44344      0.04498      2.09298      0.05768      2.23538
     3.45345      0.04551      2.09748      0.05841      2.24114
     3.46346      0.04604      2.10203      0.05915      2.24698
     3.47347      0.04659      2.10664      0.05991      2.25289
     3.48348      0.04715      2.11130      0.06068      2.25888
     3.49349      0.04772      2.11601      0.06147      2.26495
     3.50350      0.04829      2.12079      0.06227      2.27109
     3.51351      0.04888      2.12561      0.06309      2.27731
     3.52352      0.04948      2.13050      0.06392      2.28361
     3.53353      0.05009      2.13545      0.06476      2.29000
     3.54354      0.05071      2.14046      0.06563      2.29647
     3.55355      0.05134      2.14553      0.06651      2.30303
     3.56356      0.05198      2.15066      0.06741      2.30967
     3.57357      0.05263      2.15585      0.06832      2.31640
     3.58358      0.05330      2.16111      0.06926      2.32323
     3.59359      0.05397      2.16644      0.07021      2.33014
     3.60360      0.05466      2.17183      0.07118      2.33716
     3.61361      0.05537      2.17730      0.07217      2.34426
     3.62362      0.05609      2.18283      0.07318      2.35147
     3.63363      0.05682      2.18844      0.07422      2.35878
     3.64364      0.05756      2.19411      0.07527      2.36618
     3.65365      0.05832      2.19986      0.07635      2.37370
     3.66366      0.05909      2.20569      0.07745      2.38132
     3.67367      0.05988      2.21159      0.07857      2.38905
     3.68368      0.06069      2.21757      0.07971      2.39689
     3.69369      0.06151      2.22363      0.08088      2.40484
     3.70370      0.06235      2.22978      0.08208      2.41291
     3.71371      0.06320      2.23600      0.08330      2.42110
     3.72372      0.06407      2.24231      0.08455      2.42941
     3.73373      0.06496      2.24871      0.08583      2.43784
     3.74374      0.06587      2.25520      0.08714      2.44640
     3.75375      0.06680      2.26177      0.08847      2.45509
     3.76376      0.06774      2.26844      0.08984      2.46391
     3.77377      0.06871      2.27520      0.09124      2.47286
     3.78378      0.06970      2.28206      0.09267      2.48196
     3.79379      0.07071      2.28901      0.09413      2.49119
     3.80380      0.07174      2.29606      0.09563      2.50057
     3.81381      0.07279      2.30322      0.09716      2.51010
     3.82382      0.07387      2.31048      0.09873      2.51978
     3.83383      0.07497      2.31785      0.10034      2.52961
     3.84384      0.07609      2.32533      0.10199      2.53960
     3.85385      0.07725      2.33291      0.10367      2.54976
     3.86386      0.07842      2.34062      0.10540      2.56008
     3.87387      0.07963      2.34843      0.10718      2.57057
     3.88388      0.08086      2.35637      0.10900      2.58123
     3.89389      0.08212      2.36443      0.11086      2.59208
     3.90390      0.08341      2.37261      0.11277      2.60311
     3.91391      0.08473      2.38092      0.11473      2.61432
     3.92392      0.08609      2.38936      0.11675      2.62573
     3.93393      0.08747      2.39794      0.11881      2.63734
     3.94394      0.08889      2.40665      0.12093      2.64915
     3.95395      0.09035      2.41550      0.12311      2.66117
     3.96396      0.09184      2.42449      0.12535      2.67340
     3.97397      0.09337      2.43363      0.12765      2.68585
     3.98398      0.09494      2.44292      0.13001      2.69853
     3.99399      0.09655      2.45237      0.13244      2.71144
     4.00400      0.09820      2.46197      0.13494      2.72458
     4.01401      0.09989      2.47174      0.13751      2.73797
    4.024024     0.101630     2.481672     0.140152     2.751613
    4.034034     0.103414     2.491775     0.142873     2.765512
    4.044044     0.105247     2.502052     0.145673     2.779677
    4.054054     0.107129     2.512511     0.148558     2.794116
    4.064064     0.109064     2.523152     0.151529     2.808836
    4.074074     0.111052     2.533984     0.154590     2.823844
    4.084084     0.113096     2.545011     0.157745     2.839151
    4.094094     0.115197     2.556237     0.160999     2.854765
    4.104104     0.117359     2.567668     0.164354     2.870695
    4.114114     0.119584     2.579311     0.167817     2.886950
    4.124124     0.121874     2.591171     0.171390     2.903542
    4.134134     0.124232     2.603255     0.175080     2.920480
    4.144144     0.126660     2.615567     0.178891     2.937775
    4.154154     0.129162     2.628117     0.182830     2.955439
    4.164164     0.131741     2.640910     0.186900     2.973483
    4.174174     0.134399     2.653954     0.191110     2.991920
    4.184184     0.137141     2.667256     0.195464     3.010762
    4.194194     0.139970     2.680824     0.199971     3.030024
    4.204204     0.142889     2.694666     0.204637     3.049720
    4.214214     0.145904     2.708791     0.209470     3.069863
    4.224224     0.149017     2.723207     0.214478     3.090470
    4.234234     0.152234     2.737925     0.219670     3.111556
    4.244244     0.155560     2.752953     0.225056     3.133139
    4.254254     0.158999     2.768301     0.230644     3.155236
    4.264264     0.162557     2.783980     0.236446     3.177865
    4.274274     0.166240     2.800002     0.242473     3.201047
    4.284284     0.170053     2.816377     0.248737     3.224801
    4.294294     0.174003     2.833118     0.255250     3.249148
    4.304304     0.178098     2.850236     0.262026     3.274112
    4.314314     0.182344     2.867746     0.269080     3.299715
    4.324324     0.186749     2.885662     0.276427     3.325984
    4.334334     0.191322     2.903997     0.284084     3.352942
    4.344344     0.196071     2.922766     0.292069     3.380618
    4.354354     0.201006     2.941986     0.300401     3.409041
    4.364364     0.206137     2.961673     0.309102     3.438242
    4.374374     0.211474     2.981844     0.318192     3.468251
    4.384384     0.217031     3.002520     0.327697     3.499104
    4.394394     0.222818     3.023718     0.337643     3.530835
    4.404404     0.228850     3.045459     0.348057     3.563482
    4.414414     0.235141     3.067763     0.358968     3.597084
    4.424424     0.241706     3.090654     0.370412     3.631685
    4.434434     0.248562     3.114156     0.382423     3.667329
    4.444444     0.255728     3.138294     0.395040     3.704062
    4.454454     0.263223     3.163093     0.408303     3.741932
    4.464464     0.271067     3.188583     0.422261     3.780996
    4.474474     0.279285     3.214791     0.436961     3.821308
    4.484484     0.287900     3.241750     0.452459     3.862926
    4.494494     0.296939     3.269492     0.468813     3.905912
    4.504504     0.306433     3.298051     0.486090     3.950336
    4.514514     0.316413     3.327466     0.504360     3.996266
    4.524524     0.326914     3.357774     0.523703     4.043778
    4.534534     0.337973     3.389017     0.544203     4.092950
    4.544544     0.349633     3.421237     0.565957     4.143869
    4.554554     0.361941     3.454483     0.589070     4.196624
    4.564565     0.374945     3.488802     0.613659     4.251309
    4.574574     0.388702     3.524246     0.639851     4.308023
    4.584584     0.403272     3.560870     0.667793     4.366878
    4.594594     0.418724     3.598733     0.697643     4.427984
    4.604605     0.435132     3.637897     0.729580     4.491461
    4.614614     0.452578     3.678421     0.763801     4.557432
    4.624624     0.471156     3.720382     0.800534     4.626035
    4.634634     0.490968     3.763849     0.840028     4.697406
    4.644644     0.512128     3.808896     0.882565     4.771687
    4.654655     0.534767     3.855607     0.928467     4.849034
    4.664664     0.559028     3.904063     0.978093     4.929597
    4.674675     0.585073     3.954352     1.031854     5.013535
    4.684684     0.613084     4.006561     1.090211     5.101000
    4.694695     0.643269     4.060788     1.153700     5.192151
    4.704704     0.675863     4.117120     1.222922     5.287130
    4.714715     0.711129     4.175654     1.298567     5.386067
    4.724724     0.749370     4.236476     1.381425     5.489063
    4.734735     0.790931     4.299674     1.472408     5.596192
    4.744744     0.836206     4.365321     1.572553     5.707465
    4.754755     0.885643     4.433475     1.683054     5.822817
    4.764764     0.939755     4.504167     1.805275     5.942068
    4.774775     0.999134     4.577402     1.940791     6.064901
    4.784785     1.064453     4.653131     2.091382     6.190778
    4.794795     1.136479     4.731229     2.259067     6.318880
    4.804804     1.216087     4.811483     2.446104     6.448005
    4.814815     1.304270     4.893553     2.655006     6.576455
    4.824825     1.402137     4.976914     2.888464     6.701851
    4.834835     1.510911     5.060814     3.149279     6.820956
    4.844844     1.631911     5.144178     3.440174     6.929429
    4.854855     1.766526     5.225546     3.763557     7.021605
    4.864865     1.916111     5.302931     4.120992     7.090237
    4.874875     2.081862     5.373721     4.512561     7.126391
    4.884884     2.264627     5.434574     4.936010     7.119561
    4.894895     2.464553     5.481346     5.385550     7.058186
    4.904905     2.680687     5.509136     5.850812     6.930866
    4.914915     2.910435     5.512544     6.316073     6.728392
    4.924924     3.149064     5.486215     6.760589     6.446500
    4.934935     3.389281     5.425795     7.160383     6.088930
    4.944945     3.621352     5.329256     7.492168     5.669491
    4.954955     3.833955     5.198356     7.738509     5.211894
    4.964965     4.016000     5.039680     7.892728     4.746381
    4.974975     4.159060     4.864672     7.961340     4.304011
    4.984985     4.259786     4.688144     7.963008     3.910209
    4.994995     4.321210     4.525573     7.924346     3.580152
    5.005005     4.352376     4.390031     7.874439     3.317072
    5.015015     4.366445     4.289961     7.840017     3.113384
    5.025025     4.378201     4.228305     7.842244     2.953158
    5.035035     4.401828     4.202953     7.895098     2.814944
    5.045045     4.449527     4.207904     8.004743     2.674149
    5.055055     4.530974     4.234516     8.169189     2.505075
    5.065065     4.653334     4.272407     8.377944     2.282859
    5.075075     4.821444     4.309939     8.611736     1.985956
    5.085085     5.037927     4.334330     8.842950     1.599343
    5.095095     5.302953     4.331568     9.037544     1.118379
    5.105105     5.613635     4.286394     9.159322     0.552085
     5.11511      5.96300      4.18260      9.17630     -0.07570
    5.125125     6.338825     4.003980     9.067685    -0.728962
    5.135135     6.722367     3.736237     8.828839    -1.365768
    5.145144     7.088112     3.369983     8.472065    -1.946617
    5.155155     7.405070     2.904344     8.022717    -2.441713
    5.165165     7.640266     2.350389     7.512749    -2.834504
    5.175175     7.764568     1.732452     6.974023    -3.121487
    5.185185     7.759155     1.086066     6.433691    -3.309135
    5.195195     7.620301     0.452089     5.911976    -3.409954
    5.205205     7.360236    -0.130866     5.422204    -3.438890
    5.215215     7.003702    -0.633361     4.971812    -3.410856
    5.225225     6.581816    -1.038685     4.563856    -3.339293
    5.235235     6.125696    -1.342724     4.198373    -3.235537
    5.245245     5.662063    -1.551029     3.873633    -3.108752
    5.255255     5.211063    -1.675102     3.586910    -2.966099
    5.265265     4.786169    -1.728961     3.335082    -2.813045
    5.275275     4.395105    -1.726709     3.114945    -2.653658
    5.285285     4.041371    -1.681113     2.923497    -2.490945
    5.295295     3.725532    -1.603001     2.758004    -2.327073
    5.305305     3.446356    -1.501143     2.616077    -2.163594
    5.315315     3.201590    -1.382402     2.495664    -2.001585
    5.325325     2.988575    -1.252043     2.395083    -1.841813
    5.335335     2.804568    -1.114002     2.312987    -1.684825
    5.345345     2.646958    -0.971195     2.248353    -1.531040
    5.355355     2.513371    -0.825718     2.200460    -1.380806
    5.365365     2.401759    -0.679092     2.168881    -1.234503
    5.375375     2.310401    -0.532392     2.153459    -1.092586
    5.385385     2.237911    -0.386385     2.154289    -0.955675
    5.395395     2.183228    -0.241615     2.171689    -0.824616
     5.40541      2.14561     -0.09852      2.20616     -0.70061
     5.41541      2.12462      0.04252      2.25831     -0.58529
    5.425425     2.120121     0.181115     2.328773    -0.480877
    5.435435     2.132254     0.316761     2.417982    -0.390295
    5.445445     2.161440     0.448803     2.525961    -0.317290
    5.455455     2.208350     0.576322     2.651916    -0.266487
    5.465465     2.273891     0.698055     2.793764    -0.243311
    5.475475     2.359139     0.812237     2.947510    -0.253683
    5.485486     2.465253     0.916478     3.106666    -0.303348
    5.495495     2.593316     1.007581     3.261872    -0.396755
    5.505505     2.744117     1.081391     3.401097    -0.535577
    5.515515     2.917750     1.132626     3.510650    -0.717091
    5.525526     3.113106     1.154844     3.577290    -0.933138
    5.535535     3.327178     1.140584     3.590939    -1.170270
    5.545545     3.554291     1.081853     3.547172    -1.411593
    5.555555     3.785286     0.971115     3.448386    -1.639737
    5.565566     4.007163     0.802877     3.303111    -1.840113
    5.575575     4.203472     0.575763     3.123774    -2.003089
    5.585585     4.355997     0.294529     2.923906    -2.124612
     5.59560      4.44768     -0.02869      2.71587     -2.20536
    5.605606     4.466342    -0.375025     2.509487    -2.249269
    5.615615     4.407739    -0.721582     2.311691    -2.261931
    5.625625     4.276725    -1.045722     2.126732    -2.249387
    5.635635     4.085890    -1.329100     1.956790    -2.217327
    5.645645     3.852351    -1.560278     1.802547    -2.170706
    5.655655     3.594062    -1.735159     1.663699    -2.113604
    5.665665     3.326997    -1.855618     1.539390    -2.049266
    5.675675     3.063584    -1.927461     1.428470    -1.980197
    5.685685     2.812400    -1.958375     1.329685    -1.908290
    5.695695     2.578579    -1.956401     1.241777    -1.834939
    5.705706     2.364637    -1.928988     1.163572    -1.761163
    5.715715     2.171230    -1.882551     1.093991    -1.687688
    5.725725     1.997835    -1.822343     1.032074    -1.615019
    5.735735     1.843224    -1.752511     0.976967    -1.543486
    5.745746     1.705862    -1.676248     0.927936    -1.473307
    5.755755     1.584092    -1.595965     0.884343    -1.404606
    5.765765     1.476294    -1.513446     0.845644    -1.337439
    5.775775     1.380932    -1.429974     0.811373    -1.271812
    5.785786     1.296626    -1.346477     0.781141    -1.207701
    5.795795     1.222145    -1.263592     0.754624    -1.145057
    5.805805     1.156411    -1.181752     0.731556    -1.083817
    5.815815     1.098483    -1.101224     0.711723    -1.023903
    5.825826     1.047560    -1.022167     0.694963    -0.965236
    5.835836     1.002959    -0.944655     0.681160    -0.907736
    5.845845     0.964104    -0.868702     0.670240    -0.851327
    5.855855     0.930514    -0.794270     0.662172    -0.795935
    5.865866     0.901795    -0.721300     0.656969    -0.741500
    5.875876     0.877635    -0.649709     0.654686    -0.687980
    5.885885     0.857790    -0.579404     0.655423    -0.635350
    5.895895     0.842083    -0.510278     0.659325    -0.583611
    5.905906     0.830403    -0.442233     0.666588    -0.532810
    5.915915     0.822699    -0.375176     0.677456    -0.483040
    5.925926     0.818980    -0.309012     0.692227    -0.434461
    5.935935     0.819317    -0.243676     0.711246    -0.387322
    5.945946     0.823846    -0.179117     0.734904    -0.341993
    5.955956     0.832765    -0.115325     0.763623    -0.298991
     5.96597      0.84635     -0.05232      0.79783     -0.25903
      5.9760       0.8649       0.0098       0.8379      -0.2231
     5.98599      0.88895      0.07089      0.88416     -0.19231
    5.995996     0.918902     0.130663     0.936615    -0.168369
    6.006006     0.955368     0.188718     0.994965    -0.153134
    6.016016     0.999005     0.244464     1.058314    -0.148801
    6.026026     1.050521     0.297075     1.124950    -0.157694
    6.036036     1.110635     0.345418     1.192135    -0.181967
    6.046046     1.180025     0.387988     1.256013    -0.223122
    6.056056     1.259197     0.422812     1.311753    -0.281404
    6.066066     1.348334     0.447391     1.354078    -0.355217
    6.076076     1.447042     0.458674     1.378155    -0.440817
    6.086086     1.554045     0.453118     1.380675    -0.532570
    6.096096     1.666789     0.426911     1.360696    -0.623786
    6.106106     1.781085     0.376426     1.319905    -0.707971
    6.116116     1.890909     0.298969     1.262154    -0.779994
    6.126126     1.988587     0.193730     1.192484    -0.836777
     6.13614      2.06552      0.06279      1.11609     -0.87733
     6.14615      2.11358     -0.08829      1.03752     -0.90236
    6.156156     2.126862    -0.250702     0.960267    -0.913621
    6.166166     2.103170    -0.413671     0.886699    -0.913388
    6.176176     2.044620    -0.566390     0.818228    -0.903982
    6.186186     1.957058    -0.700020     0.755517    -0.887540
    6.196196     1.848552    -0.808982     0.698710    -0.865889
    6.206206     1.727672    -0.891161     0.647629    -0.840518
    6.216216     1.602083    -0.947341     0.601908    -0.812603
    6.226226     1.477795    -0.980218     0.561093    -0.783046
    6.236236     1.358970    -0.993427     0.524699    -0.752525
    6.246246     1.248141    -0.990798     0.492256    -0.721542
    6.256256     1.146563    -0.975898     0.463321    -0.690461
    6.266266     1.054593    -0.951809     0.437494    -0.659542
    6.276276     0.971999    -0.921058     0.414416    -0.628965
    6.286286     0.898227    -0.885649     0.393771    -0.598850
    6.296296     0.832550    -0.847129     0.375285    -0.569275
    6.306306     0.774188    -0.806665     0.358720    -0.540286
    6.316316     0.722361    -0.765121     0.343869    -0.511901
    6.326326     0.676344    -0.723128     0.330557    -0.484125
    6.336336     0.635472    -0.681141     0.318633    -0.456950
    6.346346     0.599155    -0.639477     0.307968    -0.430359
    6.356356     0.566865    -0.598346     0.298454    -0.404325
    6.366366     0.538148    -0.557889     0.290000    -0.378824
    6.376376     0.512611    -0.518191     0.282529    -0.353822
    6.386386     0.489912    -0.479293     0.275982    -0.329290
    6.396396     0.469760    -0.441205     0.270309    -0.305191
    6.406406     0.451906    -0.403920     0.265474    -0.281495
    6.416416     0.436140    -0.367414     0.261451    -0.258169
    6.426426     0.422283    -0.331647     0.258225    -0.235179
    6.436436     0.410189    -0.296578     0.255792    -0.212496
    6.446446     0.399735    -0.262158     0.254160    -0.190092
    6.456456     0.390825    -0.228336     0.253344    -0.167942
    6.466466     0.383382    -0.195057     0.253376    -0.146022
    6.476476     0.377351    -0.162268     0.254295    -0.124316
    6.486486     0.372697    -0.129915     0.256157    -0.102814
     6.49650      0.36940     -0.09795      0.25903     -0.08151
     6.50651      0.36746     -0.06631      0.26300     -0.06042
     6.51652      0.36691     -0.03497      0.26817     -0.03957
    6.527       0.3678       -.3863E-2    0.2747       -.1899E-1
    6.537       0.3701       0.2703E-1    0.2826       0.1234E-2
     6.54655      0.37401      0.05774      0.29219      0.02100
     6.55656      0.37957      0.08830      0.30357      0.04016
     6.56657      0.38694      0.11869      0.31693      0.05850
     6.57658      0.39626      0.14891      0.33248      0.07572
     6.58659      0.40773      0.17891      0.35040      0.09143
    6.596596     0.421586     0.208615     0.370830     0.105127
    6.606606     0.438084     0.237907     0.393826     0.116164
    6.616616     0.457526     0.266600     0.419300     0.123749
    6.626626     0.480253     0.294429     0.446939     0.126962
    6.636636     0.506630     0.321023     0.476098     0.124809
    6.646646     0.537044     0.345873     0.505714     0.116335
    6.656656     0.571864     0.368295     0.534243     0.100815
     6.66667      0.61141      0.38739      0.55970      0.07800
     6.67668      0.65588      0.40201      0.57985      0.04840
     6.68669      0.70523      0.41073      0.59256      0.01339
     6.69670      0.75904      0.41183      0.59624     -0.02475
     6.70671      0.81636      0.40343      0.59026     -0.06324
     6.71672      0.87546      0.38359      0.57511     -0.09924
    6.726726     0.933704     0.350678     0.552274    -0.130392
    6.736736     0.987569     0.303762     0.523837    -0.155203
    6.746747     1.032832     0.243180     0.492042    -0.173069
    6.756756     1.065161     0.170931     0.458910    -0.184159
     6.76677      1.08094      0.09078      0.42604     -0.18916
      6.7768       1.0781       0.0079       0.3945      -0.1890
     6.78679      1.05681     -0.07224      0.36509     -0.18471
    6.796797     1.019168    -0.144451     0.338038    -0.177193
    6.806807     0.968905    -0.205157     0.313489    -0.167280
    6.816816     0.910363    -0.252498     0.291390    -0.155637
    6.826826     0.847712    -0.286266     0.271598    -0.142793
    6.836837     0.784408    -0.307459     0.253922    -0.129156
    6.846847     0.723000    -0.317759     0.238162    -0.115040
    6.856857     0.665122    -0.319109     0.224112    -0.100671
     6.86687      0.61169     -0.31340      0.21158     -0.08622
     6.87688      0.56307     -0.30233      0.20040     -0.07181
     6.88689      0.51926     -0.28730      0.19040     -0.05751
     6.89690      0.48005     -0.26945      0.18145     -0.04340
     6.90691      0.44510     -0.24967      0.17344     -0.02951
     6.91692      0.41401     -0.22864      0.16624     -0.01585
    6.927       0.3864       -.2069       0.1598       -.2453E-2
     6.93694      0.36186     -0.18471      0.15397      0.01069
     6.94695      0.34007     -0.16245      0.14876      0.02359
     6.95696      0.32069     -0.14028      0.14407      0.03623
     6.96697      0.30345     -0.11832      0.13986      0.04863
     6.97698      0.28810     -0.09668      0.13609      0.06081
     6.98699      0.27443     -0.07540      0.13273      0.07277
     6.99700      0.26224     -0.05451      0.12974      0.08452
     7.00701      0.25138     -0.03403      0.12711      0.09609
     7.01702      0.24171     -0.01396      0.12481      0.10748
    7.027       0.2331       0.5706E-2    0.1228       0.1187   
     7.03704      0.22550      0.02499      0.12114      0.12978
     7.04705      0.21876      0.04390      0.11976      0.14073
     7.05706      0.21284      0.06247      0.11867      0.15155
     7.06707      0.20768      0.08071      0.11788      0.16226
     7.07708      0.20323      0.09866      0.11739      0.17288
    7.087087     0.199453     0.116348     0.117210     0.183407
    7.097096     0.196314     0.133790     0.117350     0.193861
    7.107107     0.193794     0.151020     0.117828     0.204250
    7.117116     0.191881     0.168061     0.118666     0.214578
    7.127127     0.190568     0.184943     0.119890     0.224852
    7.137137     0.189857     0.201688     0.121534     0.235071
    7.147147     0.189758     0.218322     0.123639     0.245233
    7.157157     0.190290     0.234870     0.126251     0.255329
    7.167167     0.191479     0.251350     0.129427     0.265340
    7.177176     0.193361     0.267782     0.133231     0.275240
    7.187187     0.195983     0.284182     0.137737     0.284985
    7.197196     0.199401     0.300559     0.143027     0.294515
    7.207206     0.203687     0.316918     0.149191     0.303743
    7.217217     0.208924     0.333256     0.156325     0.312553
    7.227227     0.215212     0.349556     0.164522     0.320783
    7.237237     0.222670     0.365791     0.173865     0.328225
    7.247247     0.231433     0.381907     0.184409     0.334607
    7.257257     0.241657     0.397828     0.196160     0.339591
    7.267267     0.253521     0.413441     0.209038     0.342771
    7.277277     0.267221     0.428583     0.222835     0.343685
    7.287287     0.282968     0.443031     0.237167     0.341856
    7.297297     0.300983     0.456482     0.251435     0.336856
    7.307307     0.321471     0.468527     0.264807     0.328415
    7.317317     0.344606     0.478638     0.276273     0.316544
    7.327327     0.370476     0.486137     0.284755     0.301651
    7.337337     0.399030     0.490192     0.289311     0.284581
    7.347347     0.429992     0.489823     0.289349     0.266542
    7.357357     0.462741     0.483949     0.284784     0.248916
    7.367367     0.496229     0.471505     0.276058     0.232989
    7.377377     0.528888     0.451619     0.264024     0.219734
    7.387387     0.558645     0.423892     0.249740     0.209696
    7.397398     0.583099     0.388666     0.234253     0.202998
    7.407407     0.599859     0.347254     0.218456     0.199444
    7.417417     0.607033     0.301935     0.203020     0.198642
    7.427427     0.603691     0.255671     0.188390     0.200120
    7.437437     0.590114     0.211595     0.174823     0.203404
    7.447447     0.567720     0.172409     0.162430     0.208069
    7.457457     0.538688     0.139961     0.151226     0.213752
    7.467467     0.505470     0.115108     0.141167     0.220159
     7.47748      0.47034      0.09781      0.13217      0.22706
     7.48749      0.43515      0.08742      0.12415      0.23428
     7.49750      0.40122      0.08295      0.11700      0.24169
     7.50751      0.36938      0.08330      0.11063      0.24919
     7.51752      0.34009      0.08743      0.10494      0.25671
     7.52753      0.31349      0.09441      0.09987      0.26419
     7.53754      0.28957      0.10350      0.09533      0.27161
     7.54755      0.26819      0.11407      0.09127      0.27894
     7.55756      0.24914      0.12565      0.08763      0.28616
     7.56757      0.23221      0.13788      0.08436      0.29326
     7.57758      0.21717      0.15050      0.08142      0.30025
     7.58759      0.20382      0.16330      0.07878      0.30712
     7.59760      0.19197      0.17615      0.07640      0.31387
     7.60761      0.18143      0.18893      0.07426      0.32050
     7.61762      0.17205      0.20160      0.07235      0.32702
     7.62763      0.16370      0.21409      0.07063      0.33344
     7.63764      0.15626      0.22638      0.06909      0.33976
     7.64765      0.14962      0.23845      0.06773      0.34598
     7.65766      0.14371      0.25030      0.06652      0.35212
     7.66767      0.13845      0.26193      0.06547      0.35817
     7.67768      0.13377      0.27334      0.06455      0.36416
     7.68769      0.12961      0.28453      0.06378      0.37007
     7.69770      0.12594      0.29553      0.06314      0.37592
     7.70771      0.12271      0.30634      0.06264      0.38172
     7.71772      0.11988      0.31697      0.06227      0.38747
     7.72773      0.11744      0.32745      0.06203      0.39318
     7.73774      0.11536      0.33778      0.06193      0.39885
     7.74775      0.11362      0.34799      0.06197      0.40449
     7.75776      0.11221      0.35808      0.06216      0.41010
     7.76777      0.11112      0.36807      0.06252      0.41569
     7.77778      0.11035      0.37797      0.06304      0.42126
     7.78779      0.10989      0.38781      0.06374      0.42682
     7.79780      0.10976      0.39758      0.06465      0.43235
     7.80781      0.10995      0.40732      0.06578      0.43787
     7.81782      0.11047      0.41703      0.06715      0.44337
     7.82783      0.11136      0.42672      0.06880      0.44885
     7.83784      0.11261      0.43641      0.07075      0.45428
     7.84785      0.11427      0.44609      0.07305      0.45965
     7.85786      0.11637      0.45579      0.07573      0.46494
     7.86787      0.11893      0.46550      0.07883      0.47010
     7.87788      0.12202      0.47523      0.08242      0.47509
     7.88789      0.12569      0.48497      0.08654      0.47982
     7.89790      0.13000      0.49470      0.09123      0.48421
     7.90791      0.13503      0.50441      0.09655      0.48812
    7.917918     0.140866     0.514051     0.102495     0.491408
    7.927927     0.147609     0.523580     0.109063     0.493861
    7.937938     0.155373     0.532917     0.116180     0.495255
    7.947948     0.164282     0.541951     0.123696     0.495338
    7.957957     0.174467     0.550533     0.131356     0.493866
    7.967968     0.186063     0.558462     0.138787     0.490642
    7.977978     0.199193     0.565469     0.145498     0.485587
    7.987987     0.213954     0.571205     0.150928     0.478799
    7.997998     0.230382     0.575233     0.154529     0.470601
    8.008007     0.248414     0.577015     0.155877     0.461543
    8.018017     0.267832     0.575931     0.154780     0.452319
    8.028028     0.288197     0.571315     0.151327     0.443652
    8.038037     0.308780     0.562531     0.145867     0.436156
    8.048048     0.328540     0.549107     0.138917     0.430239
    8.058058     0.346140     0.530903     0.131045     0.426082
    8.068068     0.360089     0.508277     0.122773     0.423659
    8.078078     0.368976     0.482192     0.114517     0.422809
    8.088088     0.371776     0.454184     0.106577     0.423301
     8.09810      0.36811      0.42612      0.09914      0.42488
     8.10811      0.35835      0.39989      0.09229      0.42730
     8.11812      0.34352      0.37702      0.08607      0.43036
     8.12813      0.32502      0.35847      0.08047      0.43389
     8.13814      0.30434      0.34462      0.07545      0.43773
     8.14815      0.28283      0.33532      0.07098      0.44180
     8.15816      0.26152      0.33011      0.06699      0.44599
     8.16817      0.24115      0.32834      0.06343      0.45027
     8.17818      0.22214      0.32935      0.06026      0.45457
     8.18819      0.20473      0.33252      0.05744      0.45887
     8.19820      0.18897      0.33732      0.05491      0.46314
     8.20821      0.17483      0.34329      0.05266      0.46738
     8.21822      0.16220      0.35009      0.05064      0.47156
     8.22823      0.15097      0.35745      0.04882      0.47569
     8.23824      0.14099      0.36517      0.04720      0.47975
     8.24825      0.13214      0.37309      0.04573      0.48376
     8.25826      0.12428      0.38110      0.04442      0.48770
     8.26827      0.11730      0.38913      0.04323      0.49158
     8.27828      0.11110      0.39711      0.04217      0.49541
     8.28829      0.10558      0.40501      0.04122      0.49917
     8.29830      0.10067      0.41281      0.04037      0.50289
     8.30831      0.09630      0.42048      0.03961      0.50655
     8.31832      0.09240      0.42803      0.03893      0.51017
     8.32833      0.08894      0.43543      0.03834      0.51374
     8.33834      0.08585      0.44271      0.03782      0.51727
     8.34835      0.08311      0.44986      0.03738      0.52077
     8.35836      0.08068      0.45689      0.03700      0.52423
     8.36837      0.07853      0.46379      0.03670      0.52767
     8.37838      0.07665      0.47059      0.03646      0.53107
     8.38839      0.07501      0.47729      0.03629      0.53446
     8.39840      0.07360      0.48390      0.03619      0.53782
     8.40841      0.07240      0.49042      0.03617      0.54117
     8.41842      0.07140      0.49688      0.03621      0.54450
     8.42843      0.07060      0.50326      0.03634      0.54782
     8.43844      0.06999      0.50959      0.03655      0.55113
     8.44845      0.06957      0.51588      0.03684      0.55444
     8.45846      0.06934      0.52213      0.03723      0.55774
     8.46847      0.06930      0.52835      0.03773      0.56103
     8.47848      0.06945      0.53455      0.03834      0.56432
     8.48849      0.06980      0.54074      0.03908      0.56761
     8.49850      0.07036      0.54692      0.03996      0.57088
     8.50851      0.07115      0.55311      0.04100      0.57414
     8.51852      0.07217      0.55931      0.04222      0.57738
     8.52853      0.07345      0.56552      0.04364      0.58058
     8.53854      0.07500      0.57175      0.04529      0.58373
     8.54855      0.07687      0.57801      0.04719      0.58681
     8.55856      0.07907      0.58428      0.04937      0.58977
     8.56857      0.08166      0.59057      0.05186      0.59258
     8.57858      0.08466      0.59686      0.05469      0.59517
     8.58859      0.08814      0.60315      0.05787      0.59746
     8.59860      0.09215      0.60940      0.06142      0.59936
     8.60861      0.09676      0.61558      0.06531      0.60075
     8.61862      0.10205      0.62163      0.06949      0.60148
     8.62863      0.10809      0.62748      0.07386      0.60143
     8.63864      0.11498      0.63302      0.07824      0.60044
     8.64865      0.12281      0.63813      0.08241      0.59843
     8.65866      0.13165      0.64261      0.08606      0.59538
     8.66867      0.14157      0.64623      0.08887      0.59138
     8.67868      0.15257      0.64869      0.09055      0.58668
     8.68869      0.16462      0.64963      0.09088      0.58160
     8.69870      0.17756      0.64865      0.08981      0.57658
     8.70871      0.19106      0.64529      0.08745      0.57200
     8.71872      0.20463      0.63915      0.08403      0.56818
     8.72873      0.21756      0.62994      0.07986      0.56531
     8.73874      0.22896      0.61760      0.07527      0.56345
     8.74875      0.23783      0.60241      0.07053      0.56257
     8.75876      0.24327      0.58505      0.06587      0.56255
     8.76877      0.24465      0.56657      0.06142      0.56324
     8.77878      0.24177      0.54822      0.05729      0.56451
     8.78879      0.23495      0.53122      0.05350      0.56623
     8.79880      0.22490      0.51653      0.05008      0.56827
     8.80881      0.21254      0.50473      0.04700      0.57055
     8.81882      0.19888      0.49604      0.04424      0.57300
     8.82883      0.18475      0.49031      0.04179      0.57555
     8.83884      0.17082      0.48723      0.03960      0.57817
     8.84885      0.15756      0.48636      0.03765      0.58082
     8.85886      0.14521      0.48728      0.03592      0.58349
     8.86887      0.13393      0.48957      0.03437      0.58614
     8.87888      0.12373      0.49289      0.03299      0.58879
     8.88889      0.11458      0.49697      0.03175      0.59140
     8.89890      0.10642      0.50156      0.03064      0.59399
     8.90891      0.09917      0.50651      0.02965      0.59654
     8.91892      0.09273      0.51168      0.02876      0.59906
     8.92893      0.08702      0.51698      0.02796      0.60155
     8.93894      0.08196      0.52234      0.02724      0.60400
     8.94895      0.07746      0.52770      0.02659      0.60642
     8.95896      0.07347      0.53303      0.02601      0.60880
     8.96897      0.06992      0.53831      0.02549      0.61115
     8.97898      0.06676      0.54352      0.02502      0.61348
     8.98899      0.06395      0.54865      0.02461      0.61577
     8.99900      0.06145      0.55370      0.02425      0.61805
     9.00901      0.05923      0.55866      0.02393      0.62029
     9.01902      0.05725      0.56354      0.02365      0.62252
     9.02903      0.05549      0.56834      0.02341      0.62472
     9.03904      0.05394      0.57305      0.02321      0.62691
     9.04905      0.05258      0.57770      0.02305      0.62908
     9.05906      0.05138      0.58227      0.02294      0.63124
     9.06907      0.05034      0.58679      0.02285      0.63339
     9.07908      0.04945      0.59124      0.02281      0.63552
     9.08909      0.04869      0.59565      0.02281      0.63765
     9.09910      0.04807      0.60000      0.02285      0.63977
     9.10911      0.04758      0.60432      0.02294      0.64188
     9.11912      0.04721      0.60861      0.02307      0.64399
     9.12913      0.04697      0.61287      0.02326      0.64610
     9.13914      0.04684      0.61711      0.02350      0.64821
     9.14915      0.04684      0.62133      0.02380      0.65031
     9.15916      0.04697      0.62554      0.02416      0.65242
     9.16917      0.04723      0.62975      0.02460      0.65452
     9.17918      0.04762      0.63396      0.02513      0.65662
     9.18919      0.04816      0.63818      0.02574      0.65871
     9.19920      0.04885      0.64241      0.02646      0.66080
     9.20921      0.04971      0.64665      0.02729      0.66287
     9.21922      0.05075      0.65091      0.02826      0.66491
     9.22923      0.05199      0.65518      0.02937      0.66691
     9.23924      0.05345      0.65948      0.03065      0.66885
     9.24925      0.05515      0.66380      0.03210      0.67071
     9.25926      0.05713      0.66813      0.03376      0.67246
     9.26927      0.05941      0.67247      0.03563      0.67404
     9.27928      0.06203      0.67679      0.03772      0.67541
     9.28929      0.06505      0.68109      0.04003      0.67650
     9.29930      0.06850      0.68533      0.04253      0.67723
     9.30931      0.07244      0.68946      0.04516      0.67750
     9.31932      0.07694      0.69343      0.04786      0.67724
     9.32933      0.08205      0.69716      0.05048      0.67637
     9.33934      0.08784      0.70053      0.05285      0.67487
     9.34935      0.09435      0.70341      0.05479      0.67276
     9.35936      0.10162      0.70562      0.05610      0.67015
     9.36937      0.10964      0.70692      0.05663      0.66724
     9.37938      0.11836      0.70705      0.05630      0.66425
     9.38939      0.12762      0.70571      0.05515      0.66145
     9.39940      0.13715      0.70260      0.05330      0.65905
     9.40941      0.14655      0.69745      0.05091      0.65720
     9.41942      0.15525      0.69012      0.04819      0.65597
     9.42943      0.16260      0.68065      0.04533      0.65533
     9.43944      0.16792      0.66936      0.04246      0.65526
     9.44945      0.17063      0.65682      0.03970      0.65565
     9.45946      0.17041      0.64385      0.03711      0.65643
     9.46947      0.16727      0.63133      0.03472      0.65751
     9.47948      0.16154      0.62005      0.03256      0.65882
     9.48949      0.15381      0.61059      0.03061      0.66029
     9.49950      0.14476      0.60324      0.02886      0.66187
     9.50951      0.13504      0.59805      0.02730      0.66353
     9.51952      0.12520      0.59485      0.02591      0.66525
     9.52953      0.11566      0.59338      0.02468      0.66699
     9.53954      0.10666      0.59334      0.02357      0.66874
     9.54955      0.09835      0.59442      0.02259      0.67049
     9.55956      0.09080      0.59637      0.02172      0.67224
     9.56957      0.08400      0.59895      0.02093      0.67397
     9.57958      0.07792      0.60199      0.02023      0.67569
     9.58959      0.07250      0.60534      0.01961      0.67738
     9.59960      0.06769      0.60890      0.01904      0.67906
     9.60961      0.06343      0.61259      0.01854      0.68071
     9.61962      0.05965      0.61635      0.01808      0.68235
     9.62963      0.05629      0.62013      0.01768      0.68396
     9.63964      0.05332      0.62391      0.01731      0.68555
     9.64965      0.05068      0.62766      0.01698      0.68713
     9.65966      0.04833      0.63138      0.01669      0.68869
     9.66967      0.04624      0.63504      0.01643      0.69023
     9.67968      0.04439      0.63864      0.01620      0.69175
     9.68969      0.04274      0.64219      0.01600      0.69326
     9.69970      0.04127      0.64568      0.01582      0.69476
     9.70971      0.03997      0.64912      0.01567      0.69624
     9.71972      0.03882      0.65250      0.01554      0.69771
     9.72973      0.03781      0.65582      0.01544      0.69917
     9.73974      0.03692      0.65910      0.01536      0.70063
     9.74975      0.03614      0.66234      0.01530      0.70208
     9.75976      0.03547      0.66553      0.01527      0.70352
     9.76977      0.03490      0.66869      0.01526      0.70495
     9.77978      0.03443      0.67181      0.01528      0.70638
     9.78979      0.03405      0.67491      0.01532      0.70781
     9.79980      0.03375      0.67798      0.01539      0.70923
     9.80981      0.03354      0.68103      0.01549      0.71066
     9.81982      0.03342      0.68406      0.01563      0.71208
     9.82983      0.03338      0.68709      0.01580      0.71350
     9.83984      0.03343      0.69011      0.01601      0.71493
     9.84985      0.03356      0.69312      0.01626      0.71635
     9.85986      0.03379      0.69613      0.01655      0.71777
     9.86987      0.03412      0.69915      0.01690      0.71919
     9.87988      0.03455      0.70218      0.01731      0.72061
     9.88989      0.03508      0.70522      0.01779      0.72203
     9.89990      0.03574      0.70827      0.01834      0.72343
     9.90991      0.03652      0.71133      0.01898      0.72481
     9.91992      0.03745      0.71442      0.01971      0.72617
     9.92993      0.03854      0.71752      0.02055      0.72749
     9.93994      0.03980      0.72064      0.02151      0.72876
     9.94995      0.04125      0.72377      0.02259      0.72994
     9.95996      0.04293      0.72691      0.02382      0.73103
     9.96997      0.04486      0.73004      0.02518      0.73197
     9.97998      0.04706      0.73316      0.02668      0.73272
     9.98999      0.04958      0.73624      0.02830      0.73323
    10.00000      0.05246      0.73925      0.03001      0.73345
# 
# 11/06/2019 at 14:16 YAMBO @ dufour [start]
# 11/06/2019 at 14:16                [end]
#  
# Timing   [Min/Max/Average]: 01s/01s/01s
#
# .-Input file : Outputs/01_alda_01_alda.in
# | optics                         # [R OPT] Optics
# | bse                            # [R BSE] Bethe Salpeter Equation.
# | bsk                            # [R BSK] Bethe Salpeter Equation kernel
# | bss                            # [R BSS] Bethe Salpeter Equation solver
# | tddft                          # [R   K] Use TDDFT kernel
# | BoseTemp= 0.000000     eV      # Bosonic Temperature
# | X_Threads=0                    # [OPENMP/X] Number of threads for response functions
# | DIP_Threads=0                  # [OPENMP/X] Number of threads for dipoles
# | K_Threads= 1                   # [OPENMP/BSK] Number of threads for response functions
# | BSEmod= "retarded"             # [BSE] resonant/retarded/coupling
# | BSKmod= "ALDA"                 # [BSE] IP/Hartree/HF/ALDA/SEX
# | BSSmod= "d"                    # [BSS] (h)aydock/(d)iagonalization/(i)nversion/(t)ddft`
# | BSENGexx=  7659        RL      # [BSK] Exchange components
# | % KfnQP_E
# |  3.500000 | 1.000000 | 1.000000 |        # [EXTQP BSK BSS] E parameters  (c/v) eV|adim|adim
# | %
# | % BEnRange
# |   0.00000 | 10.00000 | eV      # [BSS] Energy range
# | %
# | % BDmRange
# |   0.10000 |  0.10000 | eV      # [BSS] Damping range
# | %
# | BEnSteps= 1000                 # [BSS] Energy steps
# | % BLongDir
# | 0.1000E-4 | 0.000    | 0.000    |        # [BSS] [cc] Electric Field
# | %
# | % BSEBands
# |  1 | 2 |                       # [BSK] Bands range
# | %
# | WRbsWF                         # [BSS] Write to disk excitonic the WFs
