#                                                                     
#  /$$     /$$ /$$$$$$  /$$      /$$ /$$$$$$$   /$$$$$$               
# |  $$   /$$//$$__  $$| $$$    /$$$| $$__  $$ /$$__  $$              
#  \  $$ /$$/| $$  \ $$| $$$$  /$$$$| $$  \ $$| $$  \ $$              
#   \  $$$$/ | $$$$$$$$| $$ $$/$$ $$| $$$$$$$ | $$  | $$              
#    \  $$/  | $$__  $$| $$  $$$| $$| $$__  $$| $$  | $$              
#     | $$   | $$  | $$| $$\  $ | $$| $$  \ $$| $$  | $$              
#     | $$   | $$  | $$| $$ \/  | $$| $$$$$$$/|  $$$$$$/              
#     |__/   |__/  |__/|__/     |__/|_______/  \______/               
#                                                                     
# GPL Version 4.5.0 Revision 9122. (Based on r.17089 h.6b5c70e8d)     
#                                                                     
#                  MPI+SLK+OpenMP Build                               
#               http://www.yambo-code.org                             
#
# Absorption @ Q(1) [q->0 direction] : 0.0000000  1.0000000  0.0000000
#
#
# - Energies      are Slater exchange(X)+Perdew & Zunger(C)
# - Wavefunctions are Slater exchange(X)+Perdew & Zunger(C)
#
# - The Green`s function is T-ordered -
# - Using the Length Gauge -
# - [r,Vnl] *is* included -
#
#    E/ev[1]       EPS-Im[2]     EPS-Re[3]
#
     0.000000      0.014869      1.884235
      0.01000       0.01487       1.88424
     0.020000      0.014870      1.884245
     0.030000      0.014871      1.884258
     0.040000      0.014872      1.884277
     0.050000      0.014873      1.884300
     0.060000      0.014875      1.884329
     0.070000      0.014876      1.884363
     0.080000      0.014879      1.884403
     0.090000      0.014881      1.884447
     0.100000      0.014884      1.884497
     0.110000      0.014887      1.884552
     0.120000      0.014890      1.884612
     0.130000      0.014894      1.884678
     0.140000      0.014897      1.884749
     0.150000      0.014902      1.884825
     0.160000      0.014906      1.884906
     0.170000      0.014911      1.884993
     0.180000      0.014916      1.885085
     0.190000      0.014921      1.885182
     0.200000      0.014927      1.885285
     0.210000      0.014933      1.885392
     0.220000      0.014939      1.885506
     0.230000      0.014945      1.885624
     0.240000      0.014952      1.885748
     0.250000      0.014959      1.885876
     0.260000      0.014967      1.886011
     0.270000      0.014974      1.886150
     0.280000      0.014982      1.886295
     0.290000      0.014990      1.886445
     0.300000      0.014999      1.886601
     0.310000      0.015008      1.886762
     0.320000      0.015017      1.886928
     0.330000      0.015026      1.887100
     0.340000      0.015036      1.887277
     0.350000      0.015046      1.887459
     0.360000      0.015056      1.887647
     0.370000      0.015067      1.887840
     0.380000      0.015078      1.888038
     0.390000      0.015089      1.888242
     0.400000      0.015101      1.888451
     0.410000      0.015112      1.888666
     0.420000      0.015124      1.888886
     0.430000      0.015137      1.889112
     0.440000      0.015150      1.889343
     0.450000      0.015163      1.889579
     0.460000      0.015176      1.889821
     0.470000      0.015190      1.890069
     0.480000      0.015204      1.890321
     0.490000      0.015218      1.890580
     0.500000      0.015233      1.890844
     0.510000      0.015247      1.891113
     0.520000      0.015263      1.891388
     0.530000      0.015278      1.891668
     0.540000      0.015294      1.891954
     0.550000      0.015310      1.892246
     0.560000      0.015327      1.892543
     0.570000      0.015343      1.892845
     0.580000      0.015360      1.893154
     0.590000      0.015378      1.893468
     0.600000      0.015396      1.893787
     0.610000      0.015414      1.894112
     0.620000      0.015432      1.894443
     0.630000      0.015451      1.894779
     0.640000      0.015470      1.895122
     0.650000      0.015489      1.895469
     0.660000      0.015509      1.895823
     0.670000      0.015529      1.896182
     0.680000      0.015549      1.896547
     0.690000      0.015570      1.896918
     0.700000      0.015591      1.897294
     0.710000      0.015613      1.897677
     0.720000      0.015634      1.898065
     0.730000      0.015656      1.898459
     0.740000      0.015679      1.898858
     0.750000      0.015702      1.899264
     0.760000      0.015725      1.899676
     0.770000      0.015748      1.900093
     0.780000      0.015772      1.900516
     0.790000      0.015796      1.900945
     0.800000      0.015821      1.901380
     0.810000      0.015846      1.901822
     0.820000      0.015871      1.902269
     0.830000      0.015896      1.902722
     0.840000      0.015922      1.903181
     0.850000      0.015949      1.903646
     0.860000      0.015975      1.904117
     0.870000      0.016002      1.904594
     0.880000      0.016030      1.905078
     0.890000      0.016058      1.905567
     0.900000      0.016086      1.906063
     0.910000      0.016114      1.906564
     0.920000      0.016143      1.907072
     0.930000      0.016173      1.907587
     0.940000      0.016202      1.908107
     0.950000      0.016232      1.908634
     0.960000      0.016263      1.909167
     0.970000      0.016294      1.909706
     0.980000      0.016325      1.910251
     0.990000      0.016356      1.910803
     1.000000      0.016388      1.911362
     1.010000      0.016421      1.911926
     1.020000      0.016454      1.912497
     1.030000      0.016487      1.913075
     1.040000      0.016521      1.913659
     1.050000      0.016555      1.914250
     1.060000      0.016589      1.914847
     1.070000      0.016624      1.915450
     1.080000      0.016659      1.916061
     1.090000      0.016695      1.916677
     1.100000      0.016731      1.917301
     1.110000      0.016768      1.917931
     1.120000      0.016805      1.918568
     1.130000      0.016842      1.919211
     1.140000      0.016880      1.919862
     1.150000      0.016918      1.920519
     1.160000      0.016957      1.921183
     1.170000      0.016996      1.921854
     1.180000      0.017036      1.922532
     1.190000      0.017076      1.923216
     1.200000      0.017117      1.923908
     1.210000      0.017158      1.924606
     1.220000      0.017199      1.925312
     1.230000      0.017241      1.926024
     1.240000      0.017284      1.926744
     1.250000      0.017326      1.927471
     1.260000      0.017370      1.928205
     1.270000      0.017414      1.928946
     1.280000      0.017458      1.929694
     1.290000      0.017503      1.930450
     1.300000      0.017548      1.931213
     1.310000      0.017594      1.931983
     1.320000      0.017640      1.932761
     1.330000      0.017687      1.933546
     1.340000      0.017735      1.934339
     1.350000      0.017782      1.935139
     1.360000      0.017831      1.935946
     1.370000      0.017880      1.936761
     1.380000      0.017929      1.937584
     1.390000      0.017979      1.938414
     1.400000      0.018030      1.939252
     1.410000      0.018081      1.940098
     1.420000      0.018132      1.940951
     1.430000      0.018184      1.941813
     1.440000      0.018237      1.942682
     1.450000      0.018290      1.943559
     1.460000      0.018344      1.944444
     1.470000      0.018399      1.945337
     1.480000      0.018453      1.946238
     1.490000      0.018509      1.947148
     1.500000      0.018565      1.948065
     1.510000      0.018622      1.948990
     1.520000      0.018679      1.949924
     1.530000      0.018737      1.950866
     1.540000      0.018796      1.951816
     1.550000      0.018855      1.952775
     1.560000      0.018914      1.953742
     1.570000      0.018975      1.954718
     1.580000      0.019036      1.955702
     1.590000      0.019097      1.956695
     1.600000      0.019160      1.957696
     1.610000      0.019223      1.958706
     1.620000      0.019286      1.959725
     1.630000      0.019351      1.960753
     1.640000      0.019415      1.961789
     1.650000      0.019481      1.962835
     1.660000      0.019547      1.963889
     1.670000      0.019614      1.964953
     1.680000      0.019682      1.966025
     1.690000      0.019750      1.967107
     1.700000      0.019819      1.968198
     1.710000      0.019889      1.969298
     1.720000      0.019960      1.970408
     1.730000      0.020031      1.971526
     1.740000      0.020103      1.972655
     1.750000      0.020175      1.973793
     1.760000      0.020249      1.974940
     1.770000      0.020323      1.976097
     1.780000      0.020398      1.977264
     1.790000      0.020474      1.978441
     1.800000      0.020551      1.979627
     1.810000      0.020628      1.980824
     1.820000      0.020706      1.982030
     1.830000      0.020785      1.983247
     1.840000      0.020865      1.984473
     1.850000      0.020945      1.985710
     1.860000      0.021027      1.986957
     1.870000      0.021109      1.988215
     1.880000      0.021192      1.989483
     1.890000      0.021276      1.990761
     1.900000      0.021361      1.992051
     1.910000      0.021447      1.993350
     1.920000      0.021534      1.994661
     1.930000      0.021621      1.995982
     1.940000      0.021710      1.997314
     1.950000      0.021799      1.998658
     1.960000      0.021890      2.000012
     1.970000      0.021981      2.001377
     1.980000      0.022073      2.002754
     1.990000      0.022166      2.004142
     2.000000      0.022261      2.005542
     2.010000      0.022356      2.006953
     2.020000      0.022452      2.008376
     2.030000      0.022549      2.009810
     2.040000      0.022647      2.011256
     2.050000      0.022747      2.012714
     2.060000      0.022847      2.014184
     2.070000      0.022948      2.015666
     2.080000      0.023051      2.017161
     2.090000      0.023155      2.018667
     2.100000      0.023259      2.020186
     2.110000      0.023365      2.021718
     2.120000      0.023472      2.023262
     2.130000      0.023580      2.024819
     2.140000      0.023689      2.026388
     2.150000      0.023800      2.027971
     2.160000      0.023911      2.029566
     2.170000      0.024024      2.031175
     2.180000      0.024138      2.032797
     2.190000      0.024253      2.034432
     2.200000      0.024370      2.036080
     2.210000      0.024488      2.037743
     2.220000      0.024607      2.039419
     2.230000      0.024727      2.041109
     2.240000      0.024849      2.042812
     2.250000      0.024972      2.044530
     2.260000      0.025096      2.046262
     2.270000      0.025222      2.048009
     2.280000      0.025349      2.049770
     2.290000      0.025477      2.051545
     2.300000      0.025607      2.053335
     2.310000      0.025738      2.055140
     2.320000      0.025871      2.056960
     2.330000      0.026006      2.058795
     2.340000      0.026141      2.060646
     2.350000      0.026279      2.062512
     2.360000      0.026418      2.064393
     2.370000      0.026558      2.066290
     2.380000      0.026700      2.068203
     2.390000      0.026844      2.070132
     2.400000      0.026989      2.072078
     2.410000      0.027136      2.074039
     2.420000      0.027284      2.076017
     2.430000      0.027435      2.078012
     2.440000      0.027587      2.080023
     2.450000      0.027740      2.082052
     2.460000      0.027896      2.084097
     2.470000      0.028053      2.086160
     2.480000      0.028212      2.088240
     2.490000      0.028373      2.090338
     2.500000      0.028536      2.092454
     2.510000      0.028701      2.094588
     2.520000      0.028868      2.096740
     2.530000      0.029036      2.098911
     2.540000      0.029207      2.101100
     2.550000      0.029380      2.103307
     2.560000      0.029555      2.105534
     2.570000      0.029731      2.107780
     2.580000      0.029910      2.110045
     2.590000      0.030091      2.112330
     2.600000      0.030275      2.114635
     2.610000      0.030460      2.116959
     2.620000      0.030648      2.119304
     2.630000      0.030838      2.121670
     2.640000      0.031030      2.124055
     2.650000      0.031225      2.126462
     2.660000      0.031422      2.128890
     2.670000      0.031621      2.131339
     2.680000      0.031823      2.133810
     2.690000      0.032028      2.136303
     2.700000      0.032235      2.138817
     2.710000      0.032445      2.141354
     2.720000      0.032657      2.143914
     2.730000      0.032872      2.146496
     2.740000      0.033089      2.149101
     2.750000      0.033310      2.151730
     2.760000      0.033533      2.154382
     2.770000      0.033759      2.157058
     2.780000      0.033988      2.159759
     2.790000      0.034220      2.162484
     2.800000      0.034455      2.165233
     2.810000      0.034693      2.168008
     2.820000      0.034934      2.170807
     2.830000      0.035178      2.173633
     2.840000      0.035425      2.176484
     2.850000      0.035676      2.179362
     2.860000      0.035930      2.182266
     2.870000      0.036188      2.185197
     2.880000      0.036448      2.188155
     2.890000      0.036713      2.191141
     2.900000      0.036981      2.194155
     2.910000      0.037252      2.197197
     2.920000      0.037527      2.200268
     2.930000      0.037806      2.203367
     2.940000      0.038089      2.206496
     2.950000      0.038376      2.209655
     2.960000      0.038667      2.212844
     2.970000      0.038961      2.216063
     2.980000      0.039260      2.219313
     2.990000      0.039563      2.222595
     3.000000      0.039871      2.225908
     3.010000      0.040182      2.229253
     3.020000      0.040498      2.232631
     3.030000      0.040819      2.236042
     3.040000      0.041144      2.239486
     3.050000      0.041474      2.242964
     3.060000      0.041809      2.246477
     3.070000      0.042148      2.250024
     3.080000      0.042493      2.253606
     3.090000      0.042843      2.257225
     3.100000      0.043197      2.260879
     3.110000      0.043557      2.264571
     3.120000      0.043923      2.268300
     3.130000      0.044294      2.272066
     3.140000      0.044670      2.275871
     3.150000      0.045053      2.279715
     3.160000      0.045441      2.283598
     3.170000      0.045835      2.287522
     3.180000      0.046235      2.291486
     3.190000      0.046641      2.295491
     3.200000      0.047054      2.299538
     3.210000      0.047473      2.303628
     3.220000      0.047899      2.307761
     3.230000      0.048332      2.311938
     3.240000      0.048771      2.316159
     3.250000      0.049217      2.320425
     3.260000      0.049671      2.324737
     3.270000      0.050132      2.329095
     3.280000      0.050601      2.333501
     3.290000      0.051077      2.337955
     3.300000      0.051561      2.342457
     3.310000      0.052053      2.347009
     3.320000      0.052553      2.351611
     3.330000      0.053062      2.356265
     3.340000      0.053579      2.360970
     3.350000      0.054105      2.365728
     3.360000      0.054640      2.370540
     3.370000      0.055185      2.375406
     3.380000      0.055739      2.380328
     3.390000      0.056302      2.385306
     3.400000      0.056875      2.390341
     3.410000      0.057459      2.395435
     3.420000      0.058052      2.400588
     3.430000      0.058657      2.405801
     3.440000      0.059272      2.411075
     3.450000      0.059899      2.416412
     3.460000      0.060536      2.421813
     3.470000      0.061186      2.427278
     3.480000      0.061847      2.432809
     3.490000      0.062521      2.438407
     3.500000      0.063208      2.444073
     3.510000      0.063907      2.449808
     3.520000      0.064620      2.455614
     3.530000      0.065347      2.461492
     3.540000      0.066087      2.467444
     3.550000      0.066842      2.473470
     3.560000      0.067611      2.479572
     3.570000      0.068396      2.485752
     3.580000      0.069196      2.492011
     3.590000      0.070013      2.498350
     3.600000      0.070845      2.504771
     3.610000      0.071695      2.511277
     3.620000      0.072562      2.517867
     3.630000      0.073447      2.524545
     3.640000      0.074350      2.531311
     3.650000      0.075272      2.538168
     3.660000      0.076214      2.545118
     3.670000      0.077176      2.552162
     3.680000      0.078158      2.559302
     3.690000      0.079162      2.566541
     3.700000      0.080187      2.573879
     3.710000      0.081235      2.581321
     3.720000      0.082306      2.588867
     3.730000      0.083401      2.596520
     3.740000      0.084521      2.604283
     3.750000      0.085666      2.612157
     3.760000      0.086838      2.620146
     3.770000      0.088037      2.628251
     3.780000      0.089263      2.636475
     3.790000      0.090519      2.644822
     3.800000      0.091804      2.653293
     3.810000      0.093120      2.661893
     3.820000      0.094468      2.670623
     3.830000      0.095849      2.679486
     3.840000      0.097264      2.688487
     3.850000      0.098714      2.697628
    3.8600000     0.1002006     2.7069131
    3.8700000     0.1017249     2.7163451
    3.8800000     0.1032883     2.7259279
    3.8900000     0.1048921     2.7356653
    3.9000000     0.1065378     2.7455612
    3.9100000     0.1082270     2.7556195
    3.9200000     0.1099612     2.7658446
    3.9300000     0.1117421     2.7762406
    3.9400000     0.1135715     2.7868120
    3.9500000     0.1154513     2.7975635
    3.9600000     0.1173833     2.8084999
    3.9700000     0.1193696     2.8196262
    3.9800000     0.1214123     2.8309475
    3.9900000     0.1235138     2.8424692
    4.0000000     0.1256762     2.8541969
    4.0100000     0.1279022     2.8661364
    4.0200000     0.1301943     2.8782936
    4.0300000     0.1325554     2.8906749
    4.0400000     0.1349882     2.9032867
    4.0500000     0.1374958     2.9161358
    4.0600000     0.1400816     2.9292292
    4.0700000     0.1427488     2.9425743
    4.0800000     0.1455011     2.9561787
    4.0900000     0.1483423     2.9700503
    4.1000000     0.1512765     2.9841975
    4.1100000     0.1543078     2.9986289
    4.1200000     0.1574408     3.0133535
    4.1300000     0.1606803     3.0283808
    4.1400000     0.1640314     3.0437206
    4.1500000     0.1674994     3.0593831
    4.1600000     0.1710901     3.0753792
    4.1700000     0.1748096     3.0917201
    4.1800000     0.1786643     3.1084175
    4.1900000     0.1826613     3.1254838
    4.2000000     0.1868077     3.1429319
    4.2100000     0.1911116     3.1607754
    4.2200000     0.1955812     3.1790283
    4.2300000     0.2002256     3.1977057
    4.2400000     0.2050543     3.2168231
    4.2500000     0.2100777     3.2363970
    4.2600000     0.2153067     3.2564446
    4.2700000     0.2207531     3.2769841
    4.2800000     0.2264297     3.2980345
    4.2900000     0.2323501     3.3196161
    4.3000000     0.2385290     3.3417499
    4.3100000     0.2449823     3.3644582
    4.3200000     0.2517271     3.3877647
    4.3300000     0.2587819     3.4116941
    4.3400000     0.2661667     3.4362728
    4.3500000     0.2739030     3.4615283
    4.3600000     0.2820145     3.4874900
    4.3700000     0.2905267     3.5141888
    4.3800000     0.2994673     3.5416575
    4.3900000     0.3088665     3.5699309
    4.4000000     0.3187574     3.5990455
    4.4100000     0.3291759     3.6290404
    4.4200000     0.3401617     3.6599568
    4.4300000     0.3517577     3.6918385
    4.4400000     0.3640117     3.7247319
    4.4500000     0.3769757     3.7586861
    4.4600000     0.3907073     3.7937533
    4.4700000     0.4052700     3.8299890
    4.4800000     0.4207341     3.8674519
    4.4900000     0.4371774     3.9062042
    4.5000000     0.4546863     3.9463119
    4.5100000     0.4733571     3.9878447
    4.5200000     0.4932968     4.0308765
    4.5300000     0.5146254     4.0754850
    4.5400000     0.5374770     4.1217521
    4.5500000     0.5620022     4.1697638
    4.5600000     0.5883704     4.2196098
    4.5700000     0.6167726     4.2713834
    4.5800000     0.6474247     4.3251807
    4.5900000     0.6805711     4.3811002
    4.6000000     0.7164896     4.4392406
    4.6100000     0.7554959     4.4997000
    4.6200000     0.7979504     4.5625724
    4.6300000     0.8442646     4.6279446
    4.6400000     0.8949098     4.6958910
    4.6500000     0.9504261     4.7664663
    4.6600000     1.0114337     4.8396970
    4.6700000     1.0786448     4.9155677
    4.6800000     1.1528774     4.9940047
    4.6900000     1.2350697     5.0748525
    4.7000000     1.3262956     5.1578431
    4.7100000     1.4277787     5.2425547
    4.7200000     1.5409033     5.3283574
    4.7300000     1.6672187     5.4143419
    4.7400000     1.8084298     5.4992276
    4.7500000     1.9663659     5.5812457
    4.7600000     2.1429103     5.6579974
    4.7700000     2.3398719     5.7262873
    4.7800000     2.5587696     5.7819460
    4.7900000     2.8004932     5.8196704
    4.8000000     3.0648082     5.8329397
    4.8100000     3.3496853     5.8141038
    4.8200000     3.6504894     5.7547876
    4.8300000     3.9591599     5.6467807
    4.8400000     4.2636688     5.4835367
    4.8500000     4.5482031     5.2622335
    4.8600000     4.7945512     4.9859931
    4.8700000     4.9849070     4.6654439
    4.8800000     5.1056525     4.3186249
    4.8900000     5.1509171     3.9686407
    4.9000000     5.1244146     3.6394914
    4.9100000     5.0386913     3.3515238
    4.9200000     4.9121553     3.1181729
    4.9300000     4.7652315     2.9448977
    4.9400000     4.6170608     2.8300948
    4.9500000     4.4835137     2.7670729
    4.9600000     4.3765299     2.7461372
    4.9700000     4.3043540     2.7562014
    4.9800000     4.2721613     2.7857511
    4.9900000     4.2826831     2.8232398
    5.0000000     4.3366047     2.8571086
    5.0100000     4.4326249     2.8756458
    5.0200000     4.5671564     2.8668985
    5.0300000     4.7337146     2.8188601
    5.0400000     4.9221521     2.7201562
    5.0500000     5.1180482     2.5614074
    5.0600000     5.3027358     2.3372759
    5.0700000     5.4545305     2.0488453
    5.0800000     5.5515026     1.7055199
    5.0900000     5.5754941     1.3253322
    5.1000000     5.5162122     0.9328457
    5.1100000     5.3737404     0.5548563
    5.1200000     5.1582841     0.2153007
     5.130000      4.887269     -0.068736
    5.1400000     4.5811287    -0.2886710
    5.1500000     4.2594129    -0.4437346
    5.1600000     3.9382656    -0.5388427
    5.1700000     3.6294391    -0.5821284
    5.1800000     3.3404569    -0.5828675
    5.1900000     3.0753760    -0.5500789
    5.2000000     2.8357181    -0.4917612
    5.2100000     2.6213190    -0.4145963
    5.2200000     2.4309999    -0.3239374
    5.2300000     2.2630487    -0.2239429
    5.2400000     2.1155404    -0.1177656
      5.25000       1.98654      -0.00775
    5.2600000     1.8742127     0.1044098
    5.2700000     1.7768977     0.2174879
    5.2800000     1.6931238     0.3306430
    5.2900000     1.6216218     0.4433062
    5.3000000     1.5613192     0.5551122
    5.3100000     1.5113303     0.6658424
    5.3200000     1.4709448     0.7753809
    5.3300000     1.4396166     0.8836795
    5.3400000     1.4169544     0.9907289
    5.3500000     1.4027139     1.0965343
    5.3600000     1.3967924     1.2010917
    5.3700000     1.3992258     1.3043646
    5.3800000     1.4101864     1.4062586
    5.3900000     1.4299816     1.5065908
    5.4000000     1.4590511     1.6050536
    5.4100000     1.4979605     1.7011683
    5.4200000     1.5473868     1.7942285
    5.4300000     1.6080889     1.8832289
    5.4400000     1.6808550     1.9667810
    5.4500000     1.7664126     2.0430169
    5.4600000     1.8652831     2.1094918
    5.4700000     1.9775631     2.1631043
    5.4800000     2.1026126     2.2000748
    5.4900000     2.2386477     2.2160439
    5.5000000     2.3822713     2.2063770
    5.5100000     2.5280412     2.1667681
    5.5200000     2.6682646     2.0941910
    5.5300000     2.7932881     1.9881142
    5.5400000     2.8925230     1.8516823
    5.5500000     2.9562272     1.6923470
    5.5600000     2.9776541     1.5214252
    5.5700000     2.9547968     1.3524137
    5.5800000     2.8909526     1.1985064
    5.5900000     2.7938333     1.0702268
    5.6000000     2.6736496     0.9740176
    5.6100000     2.5409909     0.9120845
    5.6200000     2.4052038     0.8832081
    5.6300000     2.2735543     0.8839722
    5.6400000     2.1510808     0.9099354
    5.6500000     2.0408766     0.9565004
    5.6600000     1.9445462     1.0194408
    5.6700000     1.8626686     1.0951478
    5.6800000     1.7951862     1.1806924
    5.6900000     1.7416973     1.2737838
    5.7000000     1.7016599     1.3726813
    5.7100000     1.6745268     1.4760927
    5.7200000     1.6598304     1.5830769
    5.7300000     1.6572361     1.6929576
    5.7400000     1.6665736     1.8052491
    5.7500000     1.6878581     1.9195933
    5.7600000     1.7213042     2.0357044
    5.7700000     1.7673387     2.1533181
    5.7800000     1.8266128     2.2721413
    5.7900000     1.9000150     2.3917991
    5.8000000     1.9886848     2.5117739
    5.8100000     2.0940249     2.6313325
    5.8200000     2.2177092     2.7494348
    5.8300000     2.3616799     2.8646198
    5.8400000     2.5281251     2.9748609
    5.8500000     2.7194201     3.0773854
    5.8600000     2.9380111     3.1684562
    5.8700000     3.1862081     3.2431190
    5.8800000     3.4658420     3.2949361
    5.8900000     3.7777349     3.3157511
    5.9000000     4.1209301     3.2955767
    5.9100000     4.4916616     3.2227555
    5.9200000     4.8821185     3.0846122
    5.9300000     5.2792184     2.8688516
    5.9400000     5.6638386     2.5658797
    5.9500000     6.0111836     2.1719408
    5.9600000     6.2929981     1.6924272
    5.9700000     6.4818884     1.1440998
    5.9800000     6.5570099     0.5547313
     5.990000      6.509246     -0.040618
    6.0000000     6.3436641    -0.6059246
    6.0100000     6.0780738    -1.1108782
    6.0200000     5.7383889    -1.5354520
    6.0300000     5.3528738    -1.8711383
    6.0400000     4.9473552    -2.1192909
    6.0500000     4.5424588    -2.2879843
    6.0600000     4.1528204    -2.3887775
    6.0700000     3.7876127    -2.4341870
    6.0800000     3.4516719    -2.4360828
    6.0900000     3.1467185    -2.4048705
    6.1000000     2.8724169    -2.3492117
    6.1100000     2.6271904    -2.2760580
    6.1200000     2.4088014    -2.1908394
    6.1300000     2.2147383    -2.0977072
    6.1400000     2.0424598    -1.9997781
    6.1500000     1.8895371    -1.8993537
    6.1600000     1.7537296    -1.7981056
    6.1700000     1.6330170    -1.6972250
    6.1800000     1.5256051    -1.5975408
    6.1900000     1.4299171    -1.4996114
    6.2000000     1.3445772    -1.4037940
    6.2100000     1.2683901    -1.3102980
    6.2200000     1.2003212    -1.2192246
    6.2300000     1.1394768    -1.1305963
    6.2400000     1.0850862    -1.0443793
    6.2500000     1.0364858    -0.9604995
    6.2600000     0.9931050    -0.8788551
    6.2700000     0.9544543    -0.7993251
    6.2800000     0.9201148    -0.7217761
    6.2900000     0.8897298    -0.6460666
    6.3000000     0.8629969    -0.5720510
    6.3100000     0.8396625    -0.4995813
    6.3200000     0.8195165    -0.4285091
    6.3300000     0.8023883    -0.3586872
    6.3400000     0.7881437    -0.2899694
    6.3500000     0.7766824    -0.2222119
    6.3600000     0.7679366    -0.1552734
     6.370000      0.761870     -0.089015
     6.380000      0.758476     -0.023302
     6.390000      0.757782      0.041998
    6.4000000     0.7598452     0.1070120
    6.4100000     0.7647584     0.1718627
    6.4200000     0.7726504     0.2366656
    6.4300000     0.7836900     0.3015280
    6.4400000     0.7980896     0.3665458
    6.4500000     0.8161106     0.4317997
    6.4600000     0.8380695     0.4973502
    6.4700000     0.8643447     0.5632302
    6.4800000     0.8953847     0.6294348
    6.4900000     0.9317177     0.6959088
    6.5000000     0.9739605     0.7625282
    6.5100000     1.0228293     0.8290764
    6.5200000     1.0791481     0.8952125
    6.5300000     1.1438546     0.9604288
    6.5400000     1.2180005     1.0239967
    6.5500000     1.3027400     1.0848951
    6.5600000     1.3992998     1.1417228
    6.5700000     1.5089181     1.1925903
    6.5800000     1.6327361     1.2349979
    6.5900000     1.7716207     1.2657081
    6.6000000     1.9258913     1.2806406
    6.6100000     2.0949292     1.2748363
    6.6200000     2.2766625     1.2425701
    6.6300000     2.4669666     1.1777204
    6.6400000     2.6591002     1.0745163
    6.6500000     2.8434161     0.9287285
    6.6600000     3.0076821     0.7392117
    6.6700000     3.1383294     0.5094296
    6.6800000     3.2226748     0.2483206
     6.690000      3.251647     -0.030177
    6.7000000     3.2220532    -0.3091830
    6.7100000     3.1373774    -0.5719904
    6.7200000     3.0067398    -0.8050753
    6.7300000     2.8425257    -0.9999257
    6.7400000     2.6577356    -1.1532831
    6.7500000     2.4639616    -1.2661604
    6.7600000     2.2703494    -1.3423507
    6.7700000     2.0834068    -1.3870265
    6.7800000     1.9073108    -1.4057186
    6.7900000     1.7443985    -1.4036961
    6.8000000     1.5956573    -1.3856506
    6.8100000     1.4611417    -1.3555737
    6.8200000     1.3403019    -1.3167471
    6.8300000     1.2322309    -1.2717946
    6.8400000     1.1358424    -1.2227650
    6.8500000     1.0499926    -1.1712248
    6.8600000     0.9735582    -1.1183488
    6.8700000     0.9054823    -1.0650023
    6.8800000     0.8447985    -1.0118097
    6.8900000     0.7906393    -0.9592113
    6.9000000     0.7422364    -0.9075086
    6.9100000     0.6989155    -0.8568992
    6.9200000     0.6600884    -0.8075038
    6.9300000     0.6252442    -0.7593868
    6.9400000     0.5939404    -0.7125715
    6.9500000     0.5657948    -0.6670520
    6.9600000     0.5404776    -0.6228018
    6.9700000     0.5177049    -0.5797802
    6.9800000     0.4972330    -0.5379375
    6.9900000     0.4788528    -0.4972183
    7.0000000     0.4623860    -0.4575647
    7.0100000     0.4476811    -0.4189184
    7.0200000     0.4346104    -0.3812227
    7.0300000     0.4230670    -0.3444241
    7.0400000     0.4129621    -0.3084743
    7.0500000     0.4042231    -0.2733310
    7.0600000     0.3967898    -0.2389605
    7.0700000     0.3906121    -0.2053390
    7.0800000     0.3856455    -0.1724538
    7.0900000     0.3818459    -0.1403042
    7.1000000     0.3791633    -0.1089005
     7.110000      0.377534     -0.078260
     7.120000      0.376873     -0.048401
     7.130000      0.377070     -0.019324
      7.14000       0.37799       0.00900
     7.150000      0.379493      0.036651
     7.160000      0.381445      0.063776
     7.170000      0.383768      0.090585
    7.1800000     0.3864604     0.1173264
    7.1900000     0.3896178     0.1442557
    7.2000000     0.3934265     0.1715915
    7.2100000     0.3981376     0.1994886
    7.2200000     0.4040367     0.2280283
    7.2300000     0.4114177     0.2572256
    7.2400000     0.4205699     0.2870442
    7.2500000     0.4317757     0.3174118
    7.2600000     0.4453186     0.3482291
    7.2700000     0.4614932     0.3793727
    7.2800000     0.4806176     0.4106895
    7.2900000     0.5030436     0.4419854
    7.3000000     0.5291641     0.4730068
    7.3100000     0.5594178     0.5034171
    7.3200000     0.5942867     0.5327649
    7.3300000     0.6342865     0.5604452
    7.3400000     0.6799424     0.5856525
    7.3500000     0.7317464     0.6073269
    7.3600000     0.7900844     0.6240973
    7.3700000     0.8551242     0.6342326
    7.3800000     0.9266520     0.6356190
    7.3900000     1.0038542     0.6257960
    7.4000000     1.0850578     0.6020986
    7.4100000     1.1674734     0.5619563
    7.4200000     1.2470403     0.5033883
    7.4300000     1.3185146     0.4256672
    7.4400000     1.3759501     0.3300115
    7.4500000     1.4136211     0.2200397
    7.4600000     1.4272234     0.1016725
     7.470000      1.414953     -0.017674
    7.4800000     1.3779991    -0.1304339
    7.4900000     1.3202137    -0.2302875
    7.5000000     1.2471198    -0.3131105
    7.5100000     1.1646961    -0.3772124
    7.5200000     1.0783750    -0.4229732
    7.5300000     0.9924684    -0.4521746
    7.5400000     0.9100086    -0.4673138
    7.5500000     0.8328668    -0.4710689
    7.5600000     0.7619973    -0.4659600
    7.5700000     0.6977023    -0.4541794
    7.5800000     0.6398603    -0.4375369
    7.5900000     0.5881009    -0.4174731
    7.6000000     0.5419263    -0.3951046
    7.6100000     0.5007915    -0.3712787
    7.6200000     0.4641532    -0.3466277
    7.6300000     0.4314970    -0.3216164
    7.6400000     0.4023517    -0.2965808
    7.6500000     0.3762941    -0.2717598
    7.6600000     0.3529493    -0.2473192
    7.6700000     0.3319883    -0.2233707
    7.6800000     0.3131236    -0.1999861
    7.6900000     0.2961055    -0.1772075
    7.7000000     0.2807169    -0.1550559
    7.7100000     0.2667697    -0.1335370
    7.7200000     0.2541005    -0.1126452
     7.730000      0.242568     -0.092368
     7.740000      0.232048     -0.072686
     7.750000      0.222435     -0.053579
     7.760000      0.213634     -0.035023
     7.770000      0.205566     -0.016993
    7.7800       0.19816       0.53737E-3
     7.790000      0.191349      0.017592
     7.800000      0.185086      0.034197
     7.810000      0.179319      0.050376
     7.820000      0.174010      0.066153
     7.830000      0.169121      0.081550
     7.840000      0.164621      0.096589
    7.8500000     0.1604828     0.1112922
    7.8600000     0.1566841     0.1256779
    7.8700000     0.1532049     0.1397654
    7.8800000     0.1500286     0.1535725
    7.8900000     0.1471420     0.1671159
    7.9000000     0.1445347     0.1804113
    7.9100000     0.1421990     0.1934731
    7.9200000     0.1401303     0.2063144
    7.9300000     0.1383267     0.2189468
    7.9400000     0.1367891     0.2313801
    7.9500000     0.1355216     0.2436220
    7.9600000     0.1345312     0.2556775
    7.9700000     0.1338281     0.2675482
    7.9800000     0.1334258     0.2792314
    7.9900000     0.1333407     0.2907190
    8.0000000     0.1335918     0.3019957
    8.0100000     0.1342001     0.3130370
    8.0200000     0.1351864     0.3238073
    8.0300000     0.1365691     0.3342567
    8.0400000     0.1383597     0.3443188
    8.0500000     0.1405558     0.3539086
    8.0600000     0.1431326     0.3629227
    8.0700000     0.1460307     0.3712430
    8.0800000     0.1491436     0.3787471
    8.0900000     0.1523063     0.3853271
    8.1000000     0.1552929     0.3909175
    8.1100000     0.1578286     0.3955298
    8.1200000     0.1596236     0.3992820
    8.1300000     0.1604253     0.4024102
    8.1400000     0.1600771     0.4052477
    8.1500000     0.1585594     0.4081716
    8.1600000     0.1559954     0.4115334
    8.1700000     0.1526177     0.4155987
    8.1800000     0.1487127     0.4205174
    8.1900000     0.1445643     0.4263268
    8.2000000     0.1404146     0.4329785
    8.2100000     0.1364464     0.4403724
    8.2200000     0.1327826     0.4483869
    8.2300000     0.1294956     0.4569009
    8.2400000     0.1266204     0.4658054
    8.2500000     0.1241668     0.4750091
    8.2600000     0.1221292     0.4844394
    8.2700000     0.1204942     0.4940404
    8.2800000     0.1192453     0.5037707
    8.2900000     0.1183667     0.5136004
    8.3000000     0.1178446     0.5235087
    8.3100000     0.1176692     0.5334815
    8.3200000     0.1178348     0.5435095
    8.3300000     0.1183406     0.5535864
    8.3400000     0.1191909     0.5637077
    8.3500000     0.1203950     0.5738692
    8.3600000     0.1219678     0.5840656
    8.3700000     0.1239300     0.5942889
    8.3800000     0.1263075     0.6045271
    8.3900000     0.1291321     0.6147618
    8.4000000     0.1324404     0.6249657
    8.4100000     0.1362732     0.6351000
    8.4200000     0.1406736     0.6451102
    8.4300000     0.1456835     0.6549221
    8.4400000     0.1513376     0.6644374
    8.4500000     0.1576555     0.6735297
    8.4600000     0.1646282     0.6820426
    8.4700000     0.1722016     0.6897923
    8.4800000     0.1802560     0.6965780
    8.4900000     0.1885855     0.7022049
    8.5000000     0.1968851     0.7065227
    8.5100000     0.2047560     0.7094775
    8.5200000     0.2117419     0.7111670
    8.5300000     0.2174005     0.7118789
    8.5400000     0.2213980     0.7120863
    8.5500000     0.2235968     0.7123873
    8.5600000     0.2240992     0.7134000
    8.5700000     0.2232248     0.7156504
    8.5800000     0.2214354     0.7194943
    8.5900000     0.2192386     0.7250948
    8.6000000     0.2171071     0.7324483
    8.6100000     0.2154316     0.7414369
    8.6200000     0.2145073     0.7518831
    8.6300000     0.2145429     0.7635928
    8.6400000     0.2156807     0.7763832
    8.6500000     0.2180192     0.7900958
    8.6600000     0.2216327     0.8046011
    8.6700000     0.2265873     0.8197965
    8.6800000     0.2329523     0.8356016
    8.6900000     0.2408098     0.8519521
    8.7000000     0.2502605     0.8687931
    8.7100000     0.2614297     0.8860718
    8.7200000     0.2744709     0.9037300
    8.7300000     0.2895703     0.9216959
    8.7400000     0.3069503     0.9398740
    8.7500000     0.3268722     0.9581330
    8.7600000     0.3496388     0.9762909
    8.7700000     0.3755941     0.9940961
    8.7800000     0.4051203     1.0112031
    8.7900000     0.4386283     1.0271424
    8.8000000     0.4765384     1.0412846
    8.8100000     0.5192463     1.0527980
    8.8200000     0.5670658     1.0606044
    8.8300000     0.6201410     1.0633405
    8.8400000     0.6783176     1.0593389
    8.8500000     0.7409719     1.0466561
    8.8600000     0.8068053     1.0231815
    8.8700000     0.8736404     0.9868712
    8.8800000     0.9382954     0.9361356
    8.8900000     0.9966471     0.8703616
    8.9000000     1.0440025     0.7904626
    8.9100000     1.0758211     0.6992449
    8.9200000     1.0886627     0.6013437
    8.9300000     1.0810468     0.5025975
    8.9400000     1.0538576     0.4089915
    8.9500000     1.0100974     0.3255458
    8.9600000     0.9541093     0.2555552
    8.9700000     0.8906146     0.2003871
    8.9800000     0.8239114     0.1597612
    8.9900000     0.7574111     0.1322804
    9.0000000     0.6935078     0.1159785
    9.0100000     0.6336721     0.1087503
    9.0200000     0.5786495     0.1086241
    9.0300000     0.5286770     0.1138961
    9.0400000     0.4836683     0.1231680
    9.0500000     0.4433530     0.1353298
    9.0600000     0.4073694     0.1495187
    9.0700000     0.3753219     0.1650723
    9.0800000     0.3468140     0.1814872
    9.0900000     0.3214665     0.1983850
    9.1000000     0.2989272     0.2154844
    9.1100000     0.2788753     0.2325803
    9.1200000     0.2610232     0.2495262
    9.1300000     0.2451153     0.2662204
    9.1400000     0.2309273     0.2825958
    9.1500000     0.2182626     0.2986105
    9.1600000     0.2069507     0.3142421
    9.1700000     0.1968436     0.3294820
    9.1800000     0.1878138     0.3443321
    9.1900000     0.1797514     0.3588012
    9.2000000     0.1725620     0.3729038
    9.2100000     0.1661652     0.3866574
    9.2200000     0.1604924     0.4000823
    9.2300000     0.1554857     0.4131999
    9.2400000     0.1510967     0.4260327
    9.2500000     0.1472858     0.4386034
    9.2600000     0.1440208     0.4509347
    9.2700000     0.1412771     0.4630488
    9.2800000     0.1390367     0.4749677
    9.2900000     0.1372880     0.4867124
    9.3000000     0.1360261     0.4983029
    9.3100000     0.1352524     0.5097578
    9.3200000     0.1349748     0.5210944
    9.3300000     0.1352082     0.5323277
    9.3400000     0.1359745     0.5434701
    9.3500000     0.1373040     0.5545306
    9.3600000     0.1392351     0.5655135
    9.3700000     0.1418158     0.5764172
    9.3800000     0.1451046     0.5872323
    9.3900000     0.1491708     0.5979384
    9.4000000     0.1540961     0.6085015
    9.4100000     0.1599745     0.6188683
    9.4200000     0.1669119     0.6289612
    9.4300000     0.1750252     0.6386698
    9.4400000     0.1844377     0.6478419
    9.4500000     0.1952722     0.6562712
    9.4600000     0.2076383     0.6636851
    9.4700000     0.2216118     0.6697312
    9.4800000     0.2372035     0.6739674
    9.4900000     0.2543157     0.6758611
    9.5000000     0.2726856     0.6748052
    9.5100000     0.2918221     0.6701648
    9.5200000     0.3109497     0.6613651
    9.5300000     0.3289886     0.6480264
    9.5400000     0.3446070     0.6301302
    9.5500000     0.3563746     0.6081724
    9.5600000     0.3630157     0.5832313
    9.5700000     0.3636975     0.5568827
    9.5800000     0.3582480     0.5309508
    9.5900000     0.3472028     0.5071678
    9.6000000     0.3316591     0.4868673
    9.6100000     0.3130061     0.4708188
    9.6200000     0.2926440     0.4592296
    9.6300000     0.2717796     0.4518678
    9.6400000     0.2513285     0.4482293
    9.6500000     0.2319061     0.4476917
    9.6600000     0.2138704     0.4496243
    9.6700000     0.1973842     0.4534531
    9.6800000     0.1824764     0.4586895
    9.6900000     0.1690919     0.4649362
    9.7000000     0.1571280     0.4718807
    9.7100000     0.1464598     0.4792828
    9.7200000     0.1369563     0.4869617
    9.7300000     0.1284896     0.4947835
    9.7400000     0.1209405     0.5026507
    9.7500000     0.1142006     0.5104932
    9.7600000     0.1081731     0.5182620
    9.7700000     0.1027727     0.5259238
     9.780000      0.097925      0.533457
     9.790000      0.093564      0.540847
     9.800000      0.089634      0.548088
     9.810000      0.086085      0.555177
     9.820000      0.082876      0.562114
     9.830000      0.079969      0.568902
     9.840000      0.077332      0.575547
     9.850000      0.074938      0.582052
     9.860000      0.072763      0.588425
     9.870000      0.070785      0.594672
     9.880000      0.068987      0.600801
     9.890000      0.067354      0.606816
     9.900000      0.065871      0.612726
     9.910000      0.064526      0.618537
     9.920000      0.063309      0.624255
     9.930000      0.062211      0.629886
     9.940000      0.061224      0.635437
     9.950000      0.060340      0.640912
     9.960000      0.059553      0.646317
     9.970000      0.058857      0.651658
     9.980000      0.058247      0.656941
     9.990000      0.057717      0.662173
    10.000000      0.057264      0.667359
    10.010000      0.056886      0.672508
    10.020000      0.056582      0.677627
    10.030000      0.056352      0.682722
    10.040000      0.056197      0.687801
    10.050000      0.056120      0.692869
    10.060000      0.056124      0.697931
    10.070000      0.056213      0.702992
    10.080000      0.056391      0.708057
    10.090000      0.056664      0.713129
    10.100000      0.057035      0.718213
    10.110000      0.057513      0.723314
    10.120000      0.058104      0.728434
    10.130000      0.058818      0.733579
    10.140000      0.059664      0.738751
    10.150000      0.060656      0.743954
    10.160000      0.061807      0.749189
    10.170000      0.063136      0.754459
    10.180000      0.064660      0.759763
    10.190000      0.066403      0.765099
    10.200000      0.068391      0.770463
    10.210000      0.070654      0.775844
    10.220000      0.073227      0.781230
    10.230000      0.076148      0.786600
    10.240000      0.079461      0.791923
    10.250000      0.083213      0.797159
    10.260000      0.087453      0.802248
    10.270000      0.092228      0.807113
    10.280000      0.097583      0.811651
    10.290000      0.103546      0.815730
    10.300000      0.110123      0.819184
    10.310000      0.117274      0.821814
    10.320000      0.124900      0.823397
    10.330000      0.132813      0.823700
    10.340000      0.140719      0.822519
    10.350000      0.148213      0.819727
    10.360000      0.154803      0.815338
    10.370000      0.159967      0.809560
    10.380000      0.163254      0.802815
    10.390000      0.164387      0.795704
    10.400000      0.163338      0.788906
    10.410000      0.160339      0.783050
    10.420000      0.155820      0.778614
    10.430000      0.150311      0.775860
    10.440000      0.144332      0.774850
    10.450000      0.138334      0.775488
    10.460000      0.132654      0.777585
    10.470000      0.127527      0.780915
    10.480000      0.123094      0.785250
    10.490000      0.119432      0.790386
    10.500000      0.116570      0.796147
    10.510000      0.114516      0.802393
    10.520000      0.113263      0.809012
    10.530000      0.112801      0.815915
    10.540000      0.113127      0.823032
    10.550000      0.114241      0.830304
    10.560000      0.116158      0.837680
    10.570000      0.118901      0.845109
    10.580000      0.122507      0.852535
    10.590000      0.127023      0.859894
    10.600000      0.132510      0.867103
    10.610000      0.139033      0.874058
    10.620000      0.146661      0.880619
    10.630000      0.155457      0.886608
    10.640000      0.165461      0.891797
    10.650000      0.176673      0.895905
    10.660000      0.189024      0.898596
    10.670000      0.202339      0.899496
    10.680000      0.216301      0.898226
    10.690000      0.230421      0.894462
    10.700000      0.244042      0.888019
    10.710000      0.256382      0.878955
    10.720000      0.266651      0.867647
    10.730000      0.274210      0.854802
    10.740000      0.278744      0.841371
    10.750000      0.280356      0.828373
    10.760000      0.279559      0.816684
    10.770000      0.277156      0.806868
    10.780000      0.274059      0.799099
    10.790000      0.271118      0.793186
    10.800000      0.269002      0.788653
    10.810000      0.268126      0.784836
    10.820000      0.268630      0.780986
    10.830000      0.270364      0.776352
    10.840000      0.272901      0.770276
    10.850000      0.275564      0.762285
    10.860000      0.277492      0.752194
    10.870000      0.277769      0.740190
    10.880000      0.275591      0.726845
    10.890000      0.270446      0.713043
    10.900000      0.262237      0.699808
    10.910000      0.251285      0.688091
    10.920000      0.238231      0.678596
    10.930000      0.223866      0.671690
    10.940000      0.208965      0.667427
    10.950000      0.194182      0.665615
    10.960000      0.179993      0.665928
    10.970000      0.166706      0.667983
    10.980000      0.154485      0.671404
    10.990000      0.143385      0.675856
    11.000000      0.133394      0.681058
    11.010000      0.124455      0.686783
    11.020000      0.116487      0.692856
    11.030000      0.109403      0.699143
    11.040000      0.103112      0.705544
    11.050000      0.097531      0.711988
    11.060000      0.092580      0.718424
    11.070000      0.088190      0.724815
    11.080000      0.084298      0.731138
    11.090000      0.080851      0.737378
    11.100000      0.077802      0.743527
    11.110000      0.075109      0.749581
    11.120000      0.072738      0.755541
    11.130000      0.070660      0.761408
    11.140000      0.068851      0.767186
    11.150000      0.067288      0.772883
    11.160000      0.065956      0.778502
    11.170000      0.064840      0.784053
    11.180000      0.063931      0.789540
    11.190000      0.063220      0.794973
    11.200000      0.062703      0.800357
    11.210000      0.062378      0.805700
    11.220000      0.062244      0.811008
    11.230000      0.062304      0.816289
    11.240000      0.062566      0.821546
    11.250000      0.063037      0.826785
    11.260000      0.063729      0.832009
    11.270000      0.064658      0.837219
    11.280000      0.065843      0.842414
    11.290000      0.067306      0.847592
    11.300000      0.069077      0.852743
    11.310000      0.071186      0.857854
    11.320000      0.073672      0.862904
    11.330000      0.076577      0.867864
    11.340000      0.079947      0.872689
    11.350000      0.083832      0.877321
    11.360000      0.088280      0.881678
    11.370000      0.093337      0.885653
    11.380000      0.099033      0.889109
    11.390000      0.105376      0.891871
    11.400000      0.112330      0.893728
    11.410000      0.119794      0.894441
    11.420000      0.127580      0.893756
    11.430000      0.135386      0.891442
    11.440000      0.142788      0.887340
    11.450000      0.149260      0.881434
    11.460000      0.154234      0.873908
    11.470000      0.157192      0.865177
    11.480000      0.157791      0.855861
    11.490000      0.155944      0.846686
    11.500000      0.151850      0.838346
    11.510000      0.145935      0.831388
    11.520000      0.138751      0.826130
    11.530000      0.130856      0.822670
    11.540000      0.122740      0.820923
    11.550000      0.114774      0.820693
    11.560000      0.107211      0.821734
    11.570000      0.100199      0.823795
    11.580000      0.093807      0.826645
    11.590000      0.088050      0.830088
    11.600000      0.082908      0.833963
    11.610000      0.078340      0.838145
    11.620000      0.074297      0.842538
    11.630000      0.070728      0.847068
    11.640000      0.067582      0.851681
    11.650000      0.064811      0.856339
    11.660000      0.062373      0.861013
    11.670000      0.060228      0.865685
    11.680000      0.058343      0.870341
    11.690000      0.056688      0.874974
    11.700000      0.055238      0.879578
    11.710000      0.053970      0.884151
    11.720000      0.052865      0.888694
    11.730000      0.051906      0.893207
    11.740000      0.051079      0.897692
    11.750000      0.050372      0.902152
    11.760000      0.049774      0.906591
    11.770000      0.049277      0.911012
    11.780000      0.048872      0.915419
    11.790000      0.048553      0.919815
    11.800000      0.048314      0.924205
    11.810000      0.048151      0.928594
    11.820000      0.048059      0.932984
    11.830000      0.048036      0.937382
    11.840000      0.048079      0.941790
    11.850000      0.048186      0.946213
    11.860000      0.048355      0.950655
    11.870000      0.048586      0.955121
    11.880000      0.048877      0.959616
    11.890000      0.049229      0.964142
    11.900000      0.049643      0.968706
    11.910000      0.050117      0.973311
    11.920000      0.050655      0.977963
    11.930000      0.051257      0.982665
    11.940000      0.051926      0.987423
    11.950000      0.052663      0.992243
    11.960000      0.053471      0.997128
    11.970000      0.054355      1.002085
    11.980000      0.055318      1.007120
    11.990000      0.056364      1.012237
    12.000000      0.057498      1.017444
    12.010000      0.058726      1.022747
    12.020000      0.060055      1.028151
    12.030000      0.061492      1.033665
    12.040000      0.063046      1.039295
    12.050000      0.064724      1.045050
    12.060000      0.066539      1.050937
    12.070000      0.068502      1.056965
    12.080000      0.070626      1.063142
    12.090000      0.072926      1.069478
    12.100000      0.075419      1.075982
    12.110000      0.078125      1.082664
    12.120000      0.081065      1.089535
    12.130000      0.084264      1.096606
    12.140000      0.087751      1.103885
    12.150000      0.091557      1.111385
    12.160000      0.095720      1.119116
    12.170000      0.100281      1.127086
    12.180000      0.105290      1.135305
    12.190000      0.110800      1.143780
    12.200000      0.116877      1.152515
    12.210000      0.123594      1.161511
    12.220000      0.131035      1.170763
    12.230000      0.139299      1.180259
    12.240000      0.148496      1.189977
    12.250000      0.158757      1.199880
    12.260000      0.170228      1.209915
    12.270000      0.183077      1.219999
    12.280000      0.197492      1.230018
    12.290000      0.213680      1.239810
    12.300000      0.231867      1.249154
    12.310000      0.252287      1.257750
    12.320000      0.275168      1.265198
    12.330000      0.300707      1.270975
    12.340000      0.329032      1.274414
    12.350000      0.360141      1.274684
    12.360000      0.393817      1.270795
    12.370000      0.429527      1.261637
    12.380000      0.466308      1.246076
    12.390000      0.502673      1.223126
    12.400000      0.536598      1.192205
    12.410000      0.565645      1.153437
    12.420000      0.587277      1.107907
    12.430000      0.599335      1.057737
    12.440000      0.600546      1.005871
    12.450000      0.590861      0.955584
    12.460000      0.571469      0.909870
    12.470000      0.544483      0.870926
    12.480000      0.512433      0.839920
    12.490000      0.477783      0.817047
    12.500000      0.442603      0.801771
    12.510000      0.408427      0.793130
    12.520000      0.376263      0.789996
    12.530000      0.346681      0.791255
    12.540000      0.319923      0.795909
    12.550000      0.296012      0.803118
    12.560000      0.274837      0.812205
    12.570000      0.256210      0.822641
    12.580000      0.239914      0.834022
    12.590000      0.225723      0.846046
    12.600000      0.213422      0.858491
    12.610000      0.202813      0.871198
    12.620000      0.193718      0.884055
    12.630000      0.185982      0.896985
    12.640000      0.179472      0.909938
    12.650000      0.174074      0.922884
    12.660000      0.169695      0.935808
    12.670000      0.166256      0.948704
    12.680000      0.163698      0.961577
    12.690000      0.161974      0.974433
    12.700000      0.161050      0.987284
    12.710000      0.160906      1.000145
    12.720000      0.161535      1.013028
    12.730000      0.162940      1.025947
    12.740000      0.165138      1.038914
    12.750000      0.168157      1.051934
    12.760000      0.172040      1.065011
    12.770000      0.176840      1.078137
    12.780000      0.182625      1.091295
    12.790000      0.189479      1.104453
    12.800000      0.197499      1.117558
    12.810000      0.206792      1.130530
    12.820000      0.217480      1.143255
    12.830000      0.229686      1.155574
    12.840000      0.243530      1.167268
    12.850000      0.259108      1.178055
    12.860000      0.276471      1.187568
    12.870000      0.295588      1.195362
    12.880000      0.316295      1.200916
    12.890000      0.338243      1.203669
    12.900000      0.360840      1.203091
    12.910000      0.383227      1.198788
    12.920000      0.404296      1.190654
    12.930000      0.422814      1.179016
    12.940000      0.437625      1.164723
    12.950000      0.447917      1.149111
    12.960000      0.453447      1.133816
    12.970000      0.454639      1.120468
    12.980000      0.452493      1.110400
    12.990000      0.448369      1.104445
    13.000000      0.443723      1.102899
    13.010000      0.439901      1.105601
    13.020000      0.438028      1.112077
    13.030000      0.438985      1.121674
    13.040000      0.443434      1.133662
    13.050000      0.451880      1.147291
    13.060000      0.464720      1.161798
    13.070000      0.482289      1.176400
    13.080000      0.504874      1.190254
    13.090000      0.532717      1.202411
    13.100000      0.565981      1.211769
    13.110000      0.604683      1.217029
    13.120000      0.648593      1.216662
    13.130000      0.697089      1.208933
    13.140000      0.748984      1.191979
    13.150000      0.802350      1.164006
    13.160000      0.854413      1.123616
    13.170000      0.901597      1.070244
    13.180000      0.939842      1.004626
    13.190000      0.965215      0.929113
    13.200000      0.974704      0.847615
    13.210000      0.966952      0.765083
    13.220000      0.942600      0.686617
    13.230000      0.904092      0.616530
    13.240000      0.855027      0.557713
    13.250000      0.799366      0.511448
    13.260000      0.740761      0.477625
    13.270000      0.682166      0.455173
    13.280000      0.625704      0.442497
    13.290000      0.572731      0.437838
    13.300000      0.523978      0.439504
    13.310000      0.479723      0.445999
    13.320000      0.439933      0.456069
    13.330000      0.404393      0.468704
    13.340000      0.372782      0.483116
    13.350000      0.344739      0.498699
    13.360000      0.319897      0.515003
    13.370000      0.297904      0.531694
    13.380000      0.278434      0.548531
    13.390000      0.261194      0.565343
    13.400000      0.245925      0.582011
    13.410000      0.232398      0.598458
    13.420000      0.220413      0.614635
    13.430000      0.209799      0.630513
    13.440000      0.200407      0.646082
    13.450000      0.192108      0.661341
    13.460000      0.184792      0.676299
    13.470000      0.178365      0.690969
    13.480000      0.172747      0.705371
    13.490000      0.167870      0.719525
    13.500000      0.163676      0.733454
    13.510000      0.160117      0.747184
    13.520000      0.157154      0.760741
    13.530000      0.154754      0.774149
    13.540000      0.152892      0.787435
    13.550000      0.151550      0.800626
    13.560000      0.150716      0.813747
    13.570000      0.150381      0.826827
    13.580000      0.150545      0.839890
    13.590000      0.151213      0.852964
    13.600000      0.152394      0.866074
    13.610000      0.154106      0.879245
    13.620000      0.156370      0.892505
    13.630000      0.159216      0.905877
    13.640000      0.162681      0.919386
    13.650000      0.166810      0.933055
    13.660000      0.171659      0.946906
    13.670000      0.177291      0.960958
    13.680000      0.183785      0.975226
    13.690000      0.191230      0.989724
    13.700000      0.199733      1.004455
    13.710000      0.209418      1.019415
    13.720000      0.220430      1.034590
    13.730000      0.232936      1.049945
    13.740000      0.247130      1.065427
    13.750000      0.263235      1.080949
    13.760000      0.281502      1.096383
    13.770000      0.302218      1.111549
    13.780000      0.325696      1.126190
    13.790000      0.352274      1.139957
    13.800000      0.382304      1.152374
    13.810000      0.416120      1.162811
    13.820000      0.454004      1.170444
    13.830000      0.496119      1.174224
    13.840000      0.542411      1.172856
    13.850000      0.592482      1.164809
    13.860000      0.645422      1.148388
    13.870000      0.699648      1.121895
    13.880000      0.752768      1.083916
    13.890000      0.801595      1.033722
    13.900000      0.842378      0.971725
    13.910000      0.871327      0.899833
    13.920000      0.885355      0.821493
    13.930000      0.882827      0.741298
    13.940000      0.863998      0.664183
    13.950000      0.830947      0.594502
    13.960000      0.787020      0.535316
    13.970000      0.736061      0.488117
    13.980000      0.681712      0.452975
    13.990000      0.626958      0.428935
    14.000000      0.573969      0.414472
    14.010000      0.524136      0.407866
    14.020000      0.478212      0.407453
    14.030000      0.436489      0.411758
    14.040000      0.398950      0.419551
    14.050000      0.365391      0.429843
    14.060000      0.335508      0.441863
    14.070000      0.308955      0.455022
    14.080000      0.285381      0.468880
    14.090000      0.264450      0.483111
    14.100000      0.245852      0.497478
    14.110000      0.229306      0.511813
    14.120000      0.214564      0.525998
    14.130000      0.201407      0.539952
    14.140000      0.189645      0.553623
    14.150000      0.179110      0.566979
    14.160000      0.169658      0.580004
    14.170000      0.161165      0.592691
    14.180000      0.153521      0.605044
    14.190000      0.146633      0.617068
    14.200000      0.140419      0.628776
    14.210000      0.134808      0.640182
    14.220000      0.129737      0.651300
    14.230000      0.125154      0.662147
    14.240000      0.121012      0.672740
    14.250000      0.117268      0.683096
    14.260000      0.113888      0.693232
    14.270000      0.110840      0.703165
    14.280000      0.108096      0.712910
    14.290000      0.105633      0.722484
    14.300000      0.103429      0.731902
    14.310000      0.101466      0.741179
    14.320000      0.099727      0.750329
    14.330000      0.098199      0.759367
    14.340000      0.096869      0.768306
    14.350000      0.095727      0.777158
    14.360000      0.094763      0.785938
    14.370000      0.093969      0.794657
    14.380000      0.093340      0.803328
    14.390000      0.092869      0.811963
    14.400000      0.092553      0.820573
    14.410000      0.092387      0.829170
    14.420000      0.092370      0.837766
    14.430000      0.092499      0.846372
    14.440000      0.092774      0.855000
    14.450000      0.093196      0.863661
    14.460000      0.093765      0.872367
    14.470000      0.094482      0.881130
    14.480000      0.095352      0.889961
    14.490000      0.096376      0.898872
    14.500000      0.097560      0.907876
    14.510000      0.098910      0.916986
    14.520000      0.100430      0.926214
    14.530000      0.102130      0.935575
    14.540000      0.104017      0.945081
    14.550000      0.106102      0.954747
    14.560000      0.108395      0.964589
    14.570000      0.110909      0.974621
    14.580000      0.113659      0.984861
    14.590000      0.116660      0.995324
    14.600000      0.119931      1.006030
    14.610000      0.123492      1.016997
    14.620000      0.127366      1.028245
    14.630000      0.131579      1.039794
    14.640000      0.136158      1.051666
    14.650000      0.141138      1.063885
    14.660000      0.146554      1.076473
    14.670000      0.152447      1.089457
    14.680000      0.158864      1.102862
    14.690000      0.165858      1.116716
    14.700000      0.173487      1.131048
    14.710000      0.181821      1.145886
    14.720000      0.190934      1.161261
    14.730000      0.200915      1.177202
    14.740000      0.211864      1.193740
    14.750000      0.223895      1.210902
    14.760000      0.237139      1.228715
    14.770000      0.251745      1.247202
    14.780000      0.267887      1.266380
    14.790000      0.285763      1.286258
    14.800000      0.305602      1.306831
    14.810000      0.327668      1.328079
    14.820000      0.352264      1.349958
    14.830000      0.379742      1.372389
    14.840000      0.410501      1.395249
    14.850000      0.445001      1.418353
    14.860000      0.483761      1.441434
    14.870000      0.527366      1.464111
    14.880000      0.576458      1.485860
    14.890000      0.631728      1.505958
    14.900000      0.693889      1.523437
    14.910000      0.763624      1.537006
    14.920000      0.841504      1.544990
    14.930000      0.927857      1.545254
    14.940000      1.022573      1.535165
    14.950000      1.124836      1.511619
    14.960000      1.232799      1.471178
    14.970000      1.343238      1.410409
    14.980000      1.451304      1.326459
    14.990000      1.550533      1.217875
    15.000000      1.633339      1.085523
    15.010000      1.692068      0.933294
    15.020000      1.720513      0.768193
    15.030000      1.715419      0.599518
    15.040000      1.677356      0.437238
    15.050000      1.610569      0.290122
    15.060000      1.521850      0.164314
    15.070000      1.418974      0.062782
    15.080        1.3093       -.14371E-1
    15.090000      1.198806     -0.069100
    15.100000      1.091896     -0.104502
    15.110000      0.991348     -0.124058
    15.120000      0.898673     -0.131135
    15.130000      0.814449     -0.128709
    15.140000      0.738636     -0.119266
    15.150000      0.670817     -0.104803
    15.160000      0.610377     -0.086875
    15.170000      0.556618     -0.066674
    15.180000      0.508828     -0.045089
    15.190000      0.466328     -0.022781
    15.200       0.42849       -.22821E-3
    15.210000      0.394755      0.022224
    15.220000      0.364614      0.044335
    15.230000      0.337626      0.065939
    15.240000      0.313406      0.086926
    15.250000      0.291618      0.107229
    15.260000      0.271969      0.126810
    15.270000      0.254206      0.145654
    15.280000      0.238109      0.163760
    15.290000      0.223486      0.181138
    15.300000      0.210171      0.197807
    15.310000      0.198019      0.213791
    15.320000      0.186905      0.229115
    15.330000      0.176718      0.243807
    15.340000      0.167361      0.257896
    15.350000      0.158749      0.271412
    15.360000      0.150807      0.284383
    15.370000      0.143471      0.296837
    15.380000      0.136681      0.308800
    15.390000      0.130386      0.320299
    15.400000      0.124540      0.331358
    15.410000      0.119103      0.342000
    15.420000      0.114039      0.352249
    15.430000      0.109314      0.362124
    15.440000      0.104901      0.371646
    15.450000      0.100772      0.380833
    15.460000      0.096906      0.389703
    15.470000      0.093280      0.398273
    15.480000      0.089875      0.406557
    15.490000      0.086676      0.414572
    15.500000      0.083666      0.422330
    15.510000      0.080830      0.429845
    15.520000      0.078158      0.437128
    15.530000      0.075635      0.444192
    15.540000      0.073254      0.451047
    15.550000      0.071003      0.457703
    15.560000      0.068874      0.464171
    15.570000      0.066859      0.470459
    15.580000      0.064950      0.476575
    15.590000      0.063142      0.482529
    15.600000      0.061427      0.488328
    15.610000      0.059801      0.493978
    15.620000      0.058258      0.499488
    15.630000      0.056793      0.504863
    15.640000      0.055403      0.510110
    15.650000      0.054083      0.515235
    15.660000      0.052829      0.520243
    15.670000      0.051639      0.525140
    15.680000      0.050509      0.529931
    15.690000      0.049437      0.534622
    15.700000      0.048419      0.539216
    15.710000      0.047455      0.543718
    15.720000      0.046542      0.548134
    15.730000      0.045678      0.552466
    15.740000      0.044861      0.556719
    15.750000      0.044090      0.560897
    15.760000      0.043365      0.565004
    15.770000      0.042683      0.569044
    15.780000      0.042045      0.573019
    15.790000      0.041450      0.576935
    15.800000      0.040897      0.580793
    15.810000      0.040386      0.584598
    15.820000      0.039917      0.588353
    15.830000      0.039492      0.592060
    15.840000      0.039110      0.595724
    15.850000      0.038772      0.599348
    15.860000      0.038480      0.602934
    15.870000      0.038234      0.606486
    15.880000      0.038038      0.610007
    15.890000      0.037894      0.613500
    15.900000      0.037803      0.616968
    15.910000      0.037770      0.620413
    15.920000      0.037799      0.623840
    15.930000      0.037895      0.627250
    15.940000      0.038062      0.630646
    15.950000      0.038309      0.634031
    15.960000      0.038641      0.637406
    15.970000      0.039069      0.640773
    15.980000      0.039602      0.644133
    15.990000      0.040254      0.647486
    16.000000      0.041036      0.650831
    16.010000      0.041967      0.654165
    16.020000      0.043064      0.657483
    16.030000      0.044350      0.660776
    16.040000      0.045847      0.664034
    16.050000      0.047585      0.667237
    16.060000      0.049592      0.670361
    16.070000      0.051900      0.673373
    16.080000      0.054544      0.676225
    16.090000      0.057554      0.678856
    16.100000      0.060955      0.681187
    16.110000      0.064760      0.683114
    16.120000      0.068961      0.684513
    16.130000      0.073514      0.685237
    16.140000      0.078325      0.685124
    16.150000      0.083234      0.684016
    16.160000      0.088004      0.681787
    16.170000      0.092323      0.678381
    16.180000      0.095834      0.673855
    16.190000      0.098182      0.668412
    16.200000      0.099092      0.662395
    16.210000      0.098432      0.656250
    16.220000      0.096252      0.650439
    16.230000      0.092770      0.645362
    16.240000      0.088313      0.641287
    16.250000      0.083245      0.638335
    16.260000      0.077903      0.636496
    16.270000      0.072559      0.635670
    16.280000      0.067407      0.635710
    16.290000      0.062568      0.636452
    16.300000      0.058108      0.637740
    16.310000      0.054048      0.639440
    16.320000      0.050383      0.641438
    16.330000      0.047092      0.643645
    16.340000      0.044146      0.645989
    16.350000      0.041512      0.648418
    16.360000      0.039156      0.650892
    16.370000      0.037047      0.653381
    16.380000      0.035156      0.655865
    16.390000      0.033457      0.658328
    16.400000      0.031926      0.660761
    16.410000      0.030543      0.663155
    16.420000      0.029290      0.665506
    16.430000      0.028153      0.667812
    16.440000      0.027116      0.670071
    16.450000      0.026169      0.672284
    16.460000      0.025302      0.674449
    16.470000      0.024505      0.676569
    16.480000      0.023771      0.678644
    16.490000      0.023093      0.680675
    16.500000      0.022465      0.682665
    16.510000      0.021882      0.684614
    16.520000      0.021340      0.686525
    16.530000      0.020835      0.688398
    16.540000      0.020363      0.690236
    16.550000      0.019921      0.692039
    16.560000      0.019507      0.693810
    16.570000      0.019117      0.695550
    16.580000      0.018751      0.697260
    16.590000      0.018405      0.698941
    16.600000      0.018079      0.700595
    16.610000      0.017770      0.702222
    16.620000      0.017477      0.703825
    16.630000      0.017200      0.705403
    16.640000      0.016937      0.706959
    16.650000      0.016686      0.708492
    16.660       0.16448E-1    0.71000   
    16.670       0.16221E-1    0.71150   
    16.680       0.16004E-1    0.71297   
    16.690       0.15797E-1    0.71442   
    16.700       0.15600E-1    0.71586   
    16.710       0.15411E-1    0.71728   
    16.720       0.15230E-1    0.71868   
    16.730       0.15057E-1    0.72006   
    16.740       0.14891E-1    0.72143   
    16.750       0.14732E-1    0.72279   
    16.760       0.14580E-1    0.72413   
    16.770       0.14433E-1    0.72546   
    16.780       0.14293E-1    0.72677   
    16.790       0.14158E-1    0.72808   
    16.800       0.14028E-1    0.72936   
    16.810       0.13904E-1    0.73064   
    16.820       0.13784E-1    0.73191   
    16.830       0.13669E-1    0.73316   
    16.840       0.13558E-1    0.73441   
    16.850       0.13452E-1    0.73564   
    16.860       0.13350E-1    0.73687   
    16.870       0.13252E-1    0.73808   
    16.880       0.13157E-1    0.73929   
    16.890       0.13067E-1    0.74049   
    16.900       0.12980E-1    0.74167   
    16.910       0.12896E-1    0.74286   
    16.920       0.12816E-1    0.74403   
    16.930       0.12739E-1    0.74519   
    16.940       0.12666E-1    0.74635   
    16.950       0.12595E-1    0.74750   
    16.960       0.12528E-1    0.74865   
    16.970       0.12464E-1    0.74979   
    16.980       0.12402E-1    0.75092   
    16.990       0.12344E-1    0.75205   
    17.000       0.12288E-1    0.75317   
    17.010       0.12236E-1    0.75429   
    17.020       0.12186E-1    0.75540   
    17.030       0.12139E-1    0.75650   
    17.040       0.12094E-1    0.75761   
    17.050       0.12053E-1    0.75870   
    17.060       0.12014E-1    0.75980   
    17.070       0.11977E-1    0.76089   
    17.080       0.11944E-1    0.76198   
    17.090       0.11913E-1    0.76306   
    17.100       0.11885E-1    0.76414   
    17.110       0.11859E-1    0.76522   
    17.120       0.11837E-1    0.76630   
    17.130       0.11816E-1    0.76737   
    17.140       0.11799E-1    0.76844   
    17.150       0.11785E-1    0.76951   
    17.160       0.11773E-1    0.77058   
    17.170       0.11764E-1    0.77165   
    17.180       0.11758E-1    0.77272   
    17.190       0.11754E-1    0.77379   
    17.200       0.11754E-1    0.77485   
    17.210       0.11757E-1    0.77592   
    17.220       0.11763E-1    0.77699   
    17.230       0.11772E-1    0.77805   
    17.240       0.11784E-1    0.77912   
    17.250       0.11799E-1    0.78019   
    17.260       0.11818E-1    0.78126   
    17.270       0.11840E-1    0.78234   
    17.280       0.11866E-1    0.78341   
    17.290       0.11895E-1    0.78449   
    17.300       0.11928E-1    0.78557   
    17.310       0.11965E-1    0.78665   
    17.320       0.12006E-1    0.78774   
    17.330       0.12051E-1    0.78883   
    17.340       0.12100E-1    0.78993   
    17.350       0.12154E-1    0.79103   
    17.360       0.12212E-1    0.79213   
    17.370       0.12275E-1    0.79324   
    17.380       0.12343E-1    0.79436   
    17.390       0.12416E-1    0.79548   
    17.400       0.12495E-1    0.79661   
    17.410       0.12579E-1    0.79775   
    17.420       0.12669E-1    0.79889   
    17.430       0.12766E-1    0.80005   
    17.440       0.12868E-1    0.80121   
    17.450       0.12978E-1    0.80238   
    17.460       0.13095E-1    0.80356   
    17.470       0.13219E-1    0.80475   
    17.480       0.13351E-1    0.80596   
    17.490       0.13491E-1    0.80718   
    17.500       0.13640E-1    0.80841   
    17.510       0.13798E-1    0.80965   
    17.520       0.13967E-1    0.81091   
    17.530       0.14145E-1    0.81218   
    17.540       0.14334E-1    0.81347   
    17.550       0.14535E-1    0.81477   
    17.560       0.14749E-1    0.81610   
    17.570       0.14975E-1    0.81744   
    17.580       0.15216E-1    0.81881   
    17.590       0.15471E-1    0.82019   
    17.600       0.15742E-1    0.82160   
    17.610       0.16030E-1    0.82303   
    17.620       0.16337E-1    0.82449   
    17.630       0.16663E-1    0.82597   
    17.640       0.17009E-1    0.82748   
    17.650       0.17378E-1    0.82903   
    17.660000      0.017772      0.830602
    17.670000      0.018191      0.832210
    17.680000      0.018638      0.833853
    17.690000      0.019116      0.835534
    17.700000      0.019626      0.837255
    17.710000      0.020172      0.839019
    17.720000      0.020756      0.840827
    17.730000      0.021383      0.842682
    17.740000      0.022054      0.844588
    17.750000      0.022776      0.846547
    17.760000      0.023552      0.848562
    17.770000      0.024388      0.850637
    17.780000      0.025289      0.852776
    17.790000      0.026263      0.854981
    17.800000      0.027315      0.857258
    17.810000      0.028455      0.859610
    17.820000      0.029691      0.862042
    17.830000      0.031035      0.864558
    17.840000      0.032497      0.867162
    17.850000      0.034093      0.869860
    17.860000      0.035836      0.872657
    17.870000      0.037745      0.875556
    17.880000      0.039839      0.878562
    17.890000      0.042142      0.881679
    17.900000      0.044681      0.884910
    17.910000      0.047485      0.888257
    17.920000      0.050589      0.891720
    17.930000      0.054034      0.895298
    17.940000      0.057867      0.898984
    17.950000      0.062140      0.902769
    17.960000      0.066916      0.906636
    17.970000      0.072264      0.910559
    17.980000      0.078265      0.914502
    17.990000      0.085009      0.918412
    18.000000      0.092597      0.922215
    18.010000      0.101137      0.925809
    18.020000      0.110746      0.929054
    18.030000      0.121537      0.931768
    18.040000      0.133614      0.933706
    18.050000      0.147052      0.934557
    18.060000      0.161870      0.933929
    18.070000      0.177994      0.931349
    18.080000      0.195206      0.926279
    18.090000      0.213090      0.918150
    18.100000      0.230980      0.906441
    18.110000      0.247940      0.890792
    18.120000      0.262801      0.871155
    18.130000      0.274295      0.847930
    18.140000      0.281273      0.822034
    18.150000      0.282960      0.794837
    18.160000      0.279157      0.767949
    18.170000      0.270299      0.742923
    18.180000      0.257332      0.720974
    18.190000      0.241481      0.702820
    18.200000      0.223997      0.688678
    18.210000      0.205970      0.678363
    18.220000      0.188235      0.671437
    18.230000      0.171357      0.667351
    18.240000      0.155671      0.665539
    18.250000      0.141332      0.665485
    18.260000      0.128375      0.666748
    18.270000      0.116756      0.668966
    18.280000      0.106385      0.671854
    18.290000      0.097153      0.675195
    18.300000      0.088946      0.678821
    18.310000      0.081648      0.682610
    18.320000      0.075155      0.686471
    18.330000      0.069369      0.690338
    18.340000      0.064204      0.694166
    18.350000      0.059583      0.697922
    18.360000      0.055441      0.701585
    18.370000      0.051717      0.705140
    18.380000      0.048363      0.708580
    18.390000      0.045333      0.711900
    18.400000      0.042590      0.715100
    18.410000      0.040100      0.718180
    18.420000      0.037834      0.721142
    18.430000      0.035768      0.723991
    18.440000      0.033880      0.726730
    18.450000      0.032150      0.729364
    18.460000      0.030561      0.731896
    18.470000      0.029100      0.734333
    18.480000      0.027753      0.736679
    18.490000      0.026509      0.738937
    18.500000      0.025358      0.741114
    18.510000      0.024290      0.743212
    18.520000      0.023299      0.745236
    18.530000      0.022377      0.747190
    18.540000      0.021518      0.749077
    18.550000      0.020716      0.750902
    18.560000      0.019967      0.752667
    18.570000      0.019266      0.754375
    18.580000      0.018608      0.756029
    18.590       0.17991E-1    0.75763   
    18.600       0.17411E-1    0.75919   
    18.610       0.16865E-1    0.76070   
    18.620       0.16351E-1    0.76216   
    18.630       0.15866E-1    0.76359   
    18.640       0.15408E-1    0.76497   
    18.650       0.14975E-1    0.76632   
    18.660       0.14565E-1    0.76763   
    18.670       0.14176E-1    0.76891   
    18.680       0.13808E-1    0.77015   
    18.690       0.13458E-1    0.77136   
    18.700       0.13126E-1    0.77255   
    18.710       0.12810E-1    0.77370   
    18.720       0.12509E-1    0.77483   
    18.730       0.12222E-1    0.77593   
    18.740       0.11948E-1    0.77701   
    18.750       0.11687E-1    0.77806   
    18.760       0.11438E-1    0.77909   
    18.770       0.11200E-1    0.78010   
    18.780       0.10972E-1    0.78109   
    18.790       0.10753E-1    0.78205   
    18.800       0.10544E-1    0.78300   
    18.810       0.10344E-1    0.78393   
    18.820       0.10151E-1    0.78484   
    18.830       0.99665E-2    0.78573   
    18.840       0.97890E-2    0.78661   
    18.850       0.96184E-2    0.78747   
    18.860       0.94543E-2    0.78832   
    18.870       0.92964E-2    0.78915   
    18.880       0.91444E-2    0.78997   
    18.890       0.89978E-2    0.79077   
    18.900       0.88566E-2    0.79156   
    18.910       0.87203E-2    0.79233   
    18.920       0.85888E-2    0.79310   
    18.930       0.84618E-2    0.79385   
    18.940       0.83390E-2    0.79459   
    18.950       0.82204E-2    0.79532   
    18.960       0.81057E-2    0.79604   
    18.970       0.79948E-2    0.79674   
    18.980       0.78873E-2    0.79744   
    18.990       0.77833E-2    0.79813   
    19.000       0.76825E-2    0.79880   
    19.010       0.75848E-2    0.79947   
    19.020       0.74900E-2    0.80013   
    19.030       0.73981E-2    0.80078   
    19.040       0.73089E-2    0.80142   
    19.050       0.72223E-2    0.80205   
    19.060       0.71382E-2    0.80268   
    19.070       0.70564E-2    0.80330   
    19.080       0.69770E-2    0.80391   
    19.090       0.68997E-2    0.80451   
    19.100       0.68246E-2    0.80510   
    19.110       0.67514E-2    0.80569   
    19.120       0.66802E-2    0.80627   
    19.130       0.66109E-2    0.80684   
    19.140       0.65434E-2    0.80741   
    19.150       0.64776E-2    0.80797   
    19.160       0.64134E-2    0.80853   
    19.170       0.63509E-2    0.80908   
    19.180       0.62899E-2    0.80962   
    19.190       0.62304E-2    0.81016   
    19.200       0.61723E-2    0.81069   
    19.210       0.61156E-2    0.81121   
    19.220       0.60602E-2    0.81173   
    19.230       0.60061E-2    0.81225   
    19.240       0.59533E-2    0.81276   
    19.250       0.59016E-2    0.81327   
    19.260       0.58512E-2    0.81377   
    19.270       0.58018E-2    0.81426   
    19.280       0.57535E-2    0.81475   
    19.290       0.57062E-2    0.81524   
    19.300       0.56600E-2    0.81572   
    19.310       0.56147E-2    0.81620   
    19.320       0.55704E-2    0.81667   
    19.330       0.55270E-2    0.81714   
    19.340       0.54845E-2    0.81760   
    19.350       0.54429E-2    0.81806   
    19.360       0.54021E-2    0.81852   
    19.370       0.53621E-2    0.81897   
    19.380       0.53228E-2    0.81942   
    19.390       0.52844E-2    0.81987   
    19.400       0.52466E-2    0.82031   
    19.410       0.52096E-2    0.82075   
    19.420       0.51733E-2    0.82118   
    19.430       0.51376E-2    0.82161   
    19.440       0.51026E-2    0.82204   
    19.450       0.50683E-2    0.82246   
    19.460       0.50345E-2    0.82288   
    19.470       0.50014E-2    0.82330   
    19.480       0.49688E-2    0.82372   
    19.490       0.49368E-2    0.82413   
    19.500       0.49054E-2    0.82454   
    19.510       0.48744E-2    0.82494   
    19.520       0.48441E-2    0.82534   
    19.530       0.48142E-2    0.82574   
    19.540       0.47848E-2    0.82614   
    19.550       0.47559E-2    0.82653   
    19.560       0.47274E-2    0.82692   
    19.570       0.46995E-2    0.82731   
    19.580       0.46719E-2    0.82770   
    19.590       0.46448E-2    0.82808   
    19.600       0.46181E-2    0.82846   
    19.610       0.45919E-2    0.82884   
    19.620       0.45660E-2    0.82921   
    19.630       0.45405E-2    0.82959   
    19.640       0.45154E-2    0.82996   
    19.650       0.44907E-2    0.83033   
    19.660       0.44663E-2    0.83069   
    19.670       0.44423E-2    0.83105   
    19.680       0.44187E-2    0.83142   
    19.690       0.43954E-2    0.83177   
    19.700       0.43724E-2    0.83213   
    19.710       0.43497E-2    0.83248   
    19.720       0.43274E-2    0.83284   
    19.730       0.43053E-2    0.83319   
    19.740       0.42836E-2    0.83354   
    19.750       0.42621E-2    0.83388   
    19.760       0.42410E-2    0.83422   
    19.770       0.42201E-2    0.83457   
    19.780       0.41995E-2    0.83491   
    19.790       0.41792E-2    0.83524   
    19.800       0.41591E-2    0.83558   
    19.810       0.41393E-2    0.83591   
    19.820       0.41197E-2    0.83625   
    19.830       0.41004E-2    0.83658   
    19.840       0.40813E-2    0.83690   
    19.850       0.40625E-2    0.83723   
    19.860       0.40439E-2    0.83756   
    19.870       0.40255E-2    0.83788   
    19.880       0.40074E-2    0.83820   
    19.890       0.39894E-2    0.83852   
    19.900       0.39717E-2    0.83884   
    19.910       0.39542E-2    0.83915   
    19.920       0.39369E-2    0.83947   
    19.930       0.39198E-2    0.83978   
    19.940       0.39029E-2    0.84009   
    19.950       0.38862E-2    0.84040   
    19.960       0.38696E-2    0.84071   
    19.970       0.38533E-2    0.84102   
    19.980       0.38371E-2    0.84132   
    19.990       0.38211E-2    0.84162   
    20.000       0.38053E-2    0.84193   
# 
# 01/20/2020 at 16:34 YAMBO @ VivoBook [start]
# 01/20/2020 at 16:34                  [end]
#
# .-Input file : CHI_IP/01_ip.in_CHI_IP
# | optics                         # [R OPT] Optics
# | chi                            # [R CHI] Dyson equation for Chi.
# | dipoles                        # [R   ] Compute the dipoles
# | BoseTemp= 0.000000     eV      # Bosonic Temperature
# | DIP_Threads= 1                 # [OPENMP/X] Number of threads for dipoles
# | X_Threads= 1                   # [OPENMP/X] Number of threads for response functions
# | Chimod= "IP"                   # [X] IP/Hartree/ALDA/LRC/PF/BSfxc
# | % DipBands
# |   3 |  6 |                     # [DIP] Bands range for dipoles
# | %
# | % QpntsRXd
# |  1 | 1 |                       # [Xd] Transferred momenta
# | %
# | % BndsRnXd
# |   3 |  6 |                     # [Xd] Polarization function bands
# | %
# | % EnRngeXd
# |   0.00000 | 20.00000 | eV      # [Xd] Energy range
# | %
# | % DmRngeXd
# |   0.10000 |  0.10000 | eV      # [Xd] Damping range
# | %
# | ETStpsXd= 2001                 # [Xd] Total Energy steps
# | % LongDrXd
# |  0.000    |0.1000E-4 | 0.000    |        # [Xd] [cc] Electric Field
# | %
