#  __  __   ________   ___ __ __    _______   ______        
# /_/\/_/\ /_______/\ /__//_//_/\ /_______/\ /_____/\       
# \ \ \ \ \\::: _  \ \\::\| \| \ \\::: _  \ \\:::_ \ \      
#  \:\_\ \ \\::(_)  \ \\:.      \ \\::(_)  \/_\:\ \ \ \     
#   \::::_\/ \:: __  \ \\:.\-/\  \ \\::  _  \ \\:\ \ \ \    
#     \::\ \  \:.\ \  \ \\. \  \  \ \\::(_)  \ \\:\_\ \ \   
#      \__\/   \__\/\__\/ \__\/ \__\/ \_______\/ \_____\/   
#                                                           
#             GPL Version 3.1.2 Revision 297                
#                http://www.yambo-code.org                  
#
# Absorption @ IQ 1 [q->0 dir]: 1.000000  0.000000  0.000000
#
# - Energies      are Perdew & Wang (xc)
# - Wavefunctions are Perdew & Wang (xc)
# - The Green`s function is T-ordered -
# - The gauge is transverse + [r,Vnl] -
#
#  E/ev[1]    e/Im[2]    e/Re[3]    eo/Im[4]   eo/Re[5]
#
  0.000     0.1069E-3   1.012     0.2056E-3   1.017   
 0.7538E-1  0.1070E-3   1.012     0.2056E-3   1.017   
 0.1508     0.1070E-3   1.012     0.2058E-3   1.017   
 0.2261     0.1072E-3   1.012     0.2061E-3   1.017   
 0.3015     0.1073E-3   1.012     0.2064E-3   1.017   
 0.3769     0.1075E-3   1.012     0.2069E-3   1.017   
 0.4523     0.1078E-3   1.012     0.2075E-3   1.017   
 0.5276     0.1081E-3   1.012     0.2082E-3   1.017   
 0.6030     0.1084E-3   1.012     0.2090E-3   1.017   
 0.6784     0.1088E-3   1.012     0.2100E-3   1.017   
 0.7538     0.1093E-3   1.012     0.2110E-3   1.017   
 0.8291     0.1098E-3   1.012     0.2122E-3   1.017   
 0.9045     0.1103E-3   1.012     0.2135E-3   1.017   
 0.9799     0.1109E-3   1.012     0.2149E-3   1.017   
  1.055     0.1115E-3   1.012     0.2164E-3   1.017   
  1.131     0.1123E-3   1.012     0.2180E-3   1.017   
  1.206     0.1130E-3   1.012     0.2198E-3   1.017   
  1.281     0.1138E-3   1.012     0.2217E-3   1.017   
  1.357     0.1147E-3   1.012     0.2238E-3   1.017   
  1.432     0.1156E-3   1.012     0.2260E-3   1.017   
  1.508     0.1166E-3   1.012     0.2283E-3   1.017   
  1.583     0.1176E-3   1.012     0.2308E-3   1.017   
  1.658     0.1187E-3   1.012     0.2335E-3   1.017   
  1.734     0.1199E-3   1.012     0.2363E-3   1.018   
  1.809     0.1211E-3   1.012     0.2392E-3   1.018   
  1.884     0.1223E-3   1.012     0.2424E-3   1.018   
  1.960     0.1237E-3   1.013     0.2457E-3   1.018   
  2.035     0.1252E-3   1.013     0.2492E-3   1.018   
  2.111     0.1266E-3   1.013     0.2529E-3   1.018   
  2.186     0.1282E-3   1.013     0.2568E-3   1.018   
  2.261     0.1299E-3   1.013     0.2609E-3   1.018   
  2.337     0.1316E-3   1.013     0.2653E-3   1.018   
  2.412     0.1334E-3   1.013     0.2698E-3   1.018   
  2.487     0.1353E-3   1.013     0.2746E-3   1.018   
  2.563     0.1373E-3   1.013     0.2797E-3   1.019   
  2.638     0.1394E-3   1.013     0.2850E-3   1.019   
  2.714     0.1416E-3   1.013     0.2906E-3   1.019   
  2.789     0.1438E-3   1.013     0.2965E-3   1.019   
  2.864     0.1462E-3   1.013     0.3027E-3   1.019   
  2.940     0.1487E-3   1.013     0.3093E-3   1.019   
  3.015     0.1513E-3   1.013     0.3162E-3   1.019   
  3.090     0.1540E-3   1.013     0.3234E-3   1.020   
  3.166     0.1569E-3   1.014     0.3310E-3   1.020   
  3.241     0.1599E-3   1.014     0.3391E-3   1.020   
  3.317     0.1630E-3   1.014     0.3476E-3   1.020   
  3.392     0.1662E-3   1.014     0.3565E-3   1.020   
  3.467     0.1696E-3   1.014     0.3659E-3   1.020   
  3.543     0.1732E-3   1.014     0.3759E-3   1.021   
  3.618     0.1769E-3   1.014     0.3864E-3   1.021   
  3.693     0.1808E-3   1.014     0.3975E-3   1.021   
  3.769     0.1848E-3   1.014     0.4093E-3   1.021   
  3.844     0.1892E-3   1.014     0.4217E-3   1.022   
  3.920     0.1937E-3   1.014     0.4349E-3   1.022   
  3.995     0.1983E-3   1.015     0.4489E-3   1.022   
  4.070     0.2032E-3   1.015     0.4637E-3   1.022   
  4.146     0.2084E-3   1.015     0.4794E-3   1.023   
  4.221     0.2137E-3   1.015     0.4961E-3   1.023   
  4.296     0.2194E-3   1.015     0.5138E-3   1.023   
  4.372     0.2254E-3   1.015     0.5327E-3   1.024   
  4.447     0.2316E-3   1.015     0.5529E-3   1.024   
  4.523     0.2382E-3   1.016     0.5744E-3   1.024   
  4.598     0.2451E-3   1.016     0.5974E-3   1.025   
  4.673     0.2524E-3   1.016     0.6220E-3   1.025   
  4.749     0.2601E-3   1.016     0.6483E-3   1.025   
  4.824     0.2681E-3   1.016     0.6766E-3   1.026   
  4.899     0.2766E-3   1.016     0.7070E-3   1.026   
  4.975     0.2856E-3   1.017     0.7396E-3   1.027   
  5.050     0.2951E-3   1.017     0.7749E-3   1.027   
  5.126     0.3051E-3   1.017     0.8129E-3   1.028   
  5.201     0.3158E-3   1.017     0.8541E-3   1.028   
  5.276     0.3270E-3   1.017     0.8988E-3   1.029   
  5.352     0.3389E-3   1.018     0.9473E-3   1.030   
  5.427     0.3516E-3   1.018     0.1000E-2   1.030   
  5.503     0.3651E-3   1.018     0.1058E-2   1.031   
  5.578     0.3794E-3   1.018     0.1121E-2   1.032   
  5.653     0.3946E-3   1.019     0.1190E-2   1.033   
  5.729     0.4108E-3   1.019     0.1266E-2   1.034   
  5.804     0.4282E-3   1.019     0.1351E-2   1.034   
  5.879     0.4468E-3   1.020     0.1444E-2   1.035   
  5.955     0.4666E-3   1.020     0.1548E-2   1.037   
  6.030     0.4879E-3   1.020     0.1663E-2   1.038   
  6.106     0.5108E-3   1.021     0.1793E-2   1.039   
  6.181     0.5355E-3   1.021     0.1939E-2   1.040   
  6.256     0.5621E-3   1.021     0.2104E-2   1.042   
  6.332     0.5907E-3   1.022     0.2291E-2   1.043   
  6.407     0.6217E-3   1.022     0.2506E-2   1.045   
  6.482     0.6554E-3   1.023     0.2752E-2   1.047   
  6.558     0.6920E-3   1.023     0.3038E-2   1.049   
  6.633     0.7317E-3   1.024     0.3371E-2   1.051   
  6.709     0.7752E-3   1.024     0.3764E-2   1.054   
  6.784     0.8229E-3   1.025     0.4230E-2   1.057   
  6.859     0.8754E-3   1.025     0.4789E-2   1.060   
  6.935     0.9330E-3   1.026     0.5469E-2   1.064   
  7.010     0.9967E-3   1.027     0.6305E-2   1.068   
  7.085     0.1067E-2   1.028     0.7350E-2   1.073   
  7.161     0.1146E-2   1.028     0.8680E-2   1.079   
  7.236     0.1234E-2   1.029     0.1041E-1   1.086   
  7.312     0.1333E-2   1.030     0.1270E-1   1.094   
  7.387     0.1445E-2   1.031     0.1585E-1   1.105   
  7.462     0.1572E-2   1.032     0.2033E-1   1.117   
  7.538     0.1716E-2   1.034     0.2698E-1   1.134   
  7.613     0.1882E-2   1.035     0.3744E-1   1.155   
  7.688     0.2074E-2   1.037     0.5517E-1   1.184   
  7.764     0.2296E-2   1.038     0.8831E-1   1.225   
  7.839     0.2559E-2   1.040     0.1585      1.280   
  7.915     0.2870E-2   1.042     0.3238      1.322   
  7.990     0.3243E-2   1.044     0.6028      1.141   
  8.065     0.3695E-2   1.047     0.4939     0.7442   
  8.141     0.4252E-2   1.050     0.2389     0.6994   
  8.216     0.4945E-2   1.053     0.1229     0.7560   
  8.291     0.5828E-2   1.057     0.7208E-1  0.8054   
  8.367     0.6974E-2   1.062     0.4676E-1  0.8410   
    8.4422     0.0085     1.0673     0.0326     0.8668
   8.51759    0.01060    1.07414    0.02400    0.88598
   8.59297    0.01359    1.08264    0.01839    0.90073
   8.66834    0.01806    1.09351    0.01455    0.91240
   8.74372    0.02514    1.10782    0.01181    0.92185
    8.8191     0.0373     1.1273     0.0098     0.9296
  8.894     0.6026E-1   1.154     0.8276E-2  0.9362   
  8.970     0.1098      1.189     0.7107E-2  0.9418   
  9.045     0.2258      1.207     0.6195E-2  0.9467   
  9.121     0.3848      1.056     0.5479E-2  0.9510   
  9.196     0.2756     0.8409     0.4919E-2  0.9548   
  9.271     0.1338     0.8346     0.4489E-2  0.9582   
  9.347     0.7159E-1  0.8708     0.4178E-2  0.9614   
  9.422     0.4399E-1  0.9011     0.3989E-2  0.9644   
  9.497     0.3033E-1  0.9237     0.3950E-2  0.9672   
  9.573     0.2315E-1  0.9411     0.4134E-2  0.9701   
  9.648     0.1962E-1  0.9555     0.4727E-2  0.9731   
  9.724     0.1889E-1  0.9684     0.6231E-2  0.9763   
   9.79900    0.02155    0.98103    0.01003    0.97922
   9.87437    0.03077    0.99384    0.01728    0.97716
   9.94975    0.05483    1.00007    0.01585    0.96778
  10.03     0.8026E-1  0.9677     0.8720E-2  0.9672   
  10.10     0.5207E-1  0.9368     0.5314E-2  0.9700   
  10.18     0.2732E-1  0.9421     0.3848E-2  0.9727   
  10.25     0.1666E-1  0.9522     0.3167E-2  0.9750   
  10.33     0.1183E-1  0.9607     0.2872E-2  0.9771   
  10.40     0.9471E-2  0.9677     0.2836E-2  0.9791   
  10.48     0.8399E-2  0.9738     0.3069E-2  0.9811   
  10.55     0.8235E-2  0.9795     0.3719E-2  0.9833   
  10.63     0.9015E-2  0.9854     0.5240E-2  0.9859   
  10.70     0.1126E-1  0.9919     0.8930E-2  0.9885   
  10.77890    0.01655    0.99948    0.01686    0.98721
  10.85427    0.02941    1.00714    0.01862    0.97567
  10.93     0.5652E-1   1.001     0.1014E-1  0.9721   
  11.01     0.6059E-1  0.9610     0.5531E-2  0.9743   
  11.08     0.3232E-1  0.9494     0.3576E-2  0.9767   
  11.16     0.1738E-1  0.9561     0.2671E-2  0.9786   
  11.23     0.1114E-1  0.9633     0.2240E-2  0.9802   
  11.31     0.8415E-2  0.9693     0.2099E-2  0.9817   
  11.38     0.7455E-2  0.9744     0.2238E-2  0.9831   
  11.46     0.7915E-2  0.9792     0.2852E-2  0.9846   
  11.53     0.1052E-1  0.9841     0.4555E-2  0.9858   
  11.61     0.1787E-1  0.9876     0.7422E-2  0.9844   
  11.68     0.2909E-1  0.9796     0.6011E-2  0.9808   
  11.76     0.2188E-1  0.9653     0.3291E-2  0.9810   
  11.83     0.1144E-1  0.9659     0.2054E-2  0.9822   
  11.91     0.6793E-2  0.9697     0.1504E-2  0.9833   
  11.98     0.4721E-2  0.9730     0.1235E-2  0.9842   
  12.06     0.3715E-2  0.9757     0.1106E-2  0.9850   
  12.14     0.3257E-2  0.9781     0.1075E-2  0.9857   
  12.21     0.3213E-2  0.9802     0.1154E-2  0.9865   
  12.29     0.3708E-2  0.9823     0.1440E-2  0.9872   
  12.36     0.5324E-2  0.9844     0.2214E-2  0.9878   
  12.44     0.9114E-2  0.9845     0.3493E-2  0.9873   
  12.51     0.1021E-1  0.9794     0.2834E-2  0.9859   
  12.59     0.5891E-2  0.9778     0.1626E-2  0.9861   
  12.66     0.3440E-2  0.9793     0.1078E-2  0.9867   
  12.74     0.2375E-2  0.9809     0.8339E-3  0.9873   
  12.81     0.1861E-2  0.9822     0.7131E-3  0.9878   
  12.89     0.1593E-2  0.9834     0.6526E-3  0.9883   
  12.96     0.1458E-2  0.9845     0.6305E-3  0.9887   
  13.04     0.1422E-2  0.9854     0.6433E-3  0.9892   
  13.12     0.1490E-2  0.9864     0.7030E-3  0.9896   
  13.19     0.1686E-2  0.9874     0.8297E-3  0.9901   
  13.27     0.2035E-2  0.9885     0.1046E-2  0.9906   
  13.34     0.2834E-2  0.9899     0.1562E-2  0.9912   
  13.42     0.4799E-2  0.9913     0.2838E-2  0.9916   
  13.49     0.9200E-2  0.9910     0.4428E-2  0.9900   
  13.57     0.1105E-1  0.9844     0.3061E-2  0.9880   
  13.64     0.6170E-2  0.9817     0.1611E-2  0.9883   
  13.72     0.3271E-2  0.9827     0.9808E-3  0.9888   
  13.79     0.2029E-2  0.9840     0.6930E-3  0.9893   
  13.87     0.1440E-2  0.9851     0.5432E-3  0.9897   
  13.94     0.1136E-2  0.9859     0.4590E-3  0.9900   
  14.02     0.9881E-3  0.9865     0.4128E-3  0.9903   
  14.10     0.8591E-3  0.9870     0.3725E-3  0.9905   
  14.17     0.7088E-3  0.9874     0.3296E-3  0.9908   
  14.25     0.6098E-3  0.9878     0.2997E-3  0.9910   
  14.32     0.5430E-3  0.9882     0.2783E-3  0.9912   
  14.40     0.4937E-3  0.9886     0.2615E-3  0.9913   
  14.47     0.4549E-3  0.9889     0.2477E-3  0.9915   
  14.55     0.4232E-3  0.9892     0.2360E-3  0.9917   
  14.62     0.3964E-3  0.9895     0.2258E-3  0.9918   
  14.70     0.3735E-3  0.9897     0.2169E-3  0.9920   
  14.77     0.3536E-3  0.9900     0.2088E-3  0.9921   
  14.85     0.3360E-3  0.9902     0.2016E-3  0.9923   
  14.92     0.3203E-3  0.9904     0.1949E-3  0.9924   
  15.00     0.3061E-3  0.9906     0.1888E-3  0.9925   
# 
# YAMBO@anomaly.roma2.infn.it x 001 CPUs * 08/29/2008  10:04 [start]
#                                          08/29/2008  10:04 [end]
# 
# Cpu Timing [Min/Max/Average]: 10s/10s/10s
#
# .-Input file : Inputs/03_RPA_LF
# | optics                       # [R OPT] Optics
# | chi                          # [R CHI] Dyson equation for Chi.
# | FFTGvecs=  9987          RL  # [FFT] Plane-waves
# | % QpntsRXd
# |  1 | 1 |                     # [Xd] Transferred momenta
# | %
# | % BndsRnXd
# |    1 |  70 |                 # [Xd] Polarization function bands
# | %
# | NGsBlkXd= 123            RL  # [Xd] Response block size
# | % EnRngeXd
# |   0.00000 | 15.00000 |   eV  # [Xd] Energy range
# | %
# | % DmRngeXd
# |   0.10000 |  0.10000 |   eV  # [Xd] Damping range
# | %
# | ETStpsXd= 200                # [Xd] Total Energy steps
# | % LongDrXd
# | 0.1000E-4 | 0.000    | 0.000    |      # [Xd] [cc] Electric Field
# | %
