#                                                           
#  **    **    **     ****     ****  ******     *******     
# //**  **    ****   /**/**   **/** /*////**   **/////**    
#  //****    **//**  /**//** ** /** /*   /**  **     //**   
#   //**    **  //** /** //***  /** /******  /**      /**   
#    /**   **********/**  //*   /** /*//// **/**      /**   
#    /**  /**//////**/**   /    /** /*    /**//**     **    
#    /**  /**     /**/**        /** /*******  //*******     
#    //   //      // //         //  ///////    ///////      
#                                                           
#               Version 4.0.0 Revision 3740                 
#                        MPI Build                          
#                http://www.yambo-code.org                  
#
# Absorption @ Q(1) [q->0 direction] : 0.000    0.1000E-4  0.000   
#
#
# - Energies      are Slater exchange(X)+Perdew & Zunger(C)
# - Wavefunctions are Slater exchange(X)+Perdew & Zunger(C)
#
# - The Green`s function is resonant -
# - Using the Length Gauge -
# - [r,Vnl] *is* included -
#
#   BSK|Identifier              :5188
#      |Dimension               :192
#      |Bands                   :23 - 27
#      |Exchange           [res]: yes
#      |Correlation        [res]: no
#      |Kernel`s coupling       : no
#      |Exchange           [cpl]: no
#      |W interaction is bare   : no
#      |Correlation        [cpl]: no
#      |ALDA kernel in R-space  : yes
#      |RL vectors    [exchange]:995
#      |E/h energy range    [ev]:-1.000000 - -1.000000
#      |Coupling range     [o/o]: 100.0000 -  100.0000
#
#  E/ev[1]    eps /Im[2] eps /Re[3] eps0/Im[4] eps0/Re[5]
#
   0.00000    1.03251   15.97557    1.17083   16.99908
 0.5017E-2   1.065      16.15      1.210      17.19   
 0.1003E-1   1.100      16.32      1.250      17.39   
 0.1505E-1   1.135      16.50      1.293      17.60   
   0.02007    1.17252   16.68736    1.33691   17.80709
   0.02508    1.21113   16.87616    1.38295   18.02210
   0.03010    1.25135   17.06960    1.43101   18.24271
   0.03512    1.29326   17.26787    1.48119   18.46914
   0.04013    1.33694   17.47115    1.53362   18.70163
   0.04515    1.38250   17.67963    1.58842   18.94042
   0.05017    1.43004   17.89352    1.64575   19.18576
   0.05518    1.47968   18.11300    1.70575   19.43792
   0.06020    1.53153   18.33832    1.76859   19.69719
   0.06522    1.58573   18.56972    1.83443   19.96387
   0.07023    1.64241   18.80741    1.90347   20.23827
   0.07525    1.70172   19.05167    1.97592   20.52073
   0.08027    1.76382   19.30278    2.05198   20.81161
   0.08528    1.82889   19.56102    2.13190   21.11127
   0.09030    1.89710   19.82668    2.21593   21.42011
   0.09532    1.96867   20.10010    2.30435   21.73855
   0.10033    2.04380   20.38161    2.39745   22.06703
   0.10535    2.12272   20.67158    2.49558   22.40603
   0.11037    2.20570   20.97036    2.59907   22.75604
   0.11538    2.29299   21.27836    2.70833   23.11760
   0.12040    2.38491   21.59602    2.82376   23.49127
   0.12542    2.48176   21.92379    2.94582   23.87764
   0.13043    2.58391   22.26213    3.07502   24.27736
   0.13545    2.69172   22.61155    3.21191   24.69110
   0.14047    2.80562   22.97260    3.35709   25.11958
   0.14548    2.92605   23.34585    3.51121   25.56358
   0.15050    3.05352   23.73189    3.67501   26.02391
   0.15552    3.18856   24.13138    3.84929   26.50146
   0.16054    3.33176   24.54501    4.03492   26.99716
   0.16555    3.48378   24.97351    4.23288   27.51199
   0.17057    3.64534   25.41764    4.44425   28.04703
   0.17559    3.81722   25.87828    4.67023   28.60343
   0.18060    4.00030   26.35629    4.91215   29.18238
   0.18562    4.19555   26.85259    5.17150   29.78521
   0.19064    4.40403   27.36824    5.44992   30.41330
   0.19565    4.62692   27.90428    5.74927   31.06811
   0.20067    4.86555   28.46189    6.07162   31.75126
   0.20569    5.12139   29.04226    6.41930   32.46442
   0.21070    5.39607   29.64670    6.79492   33.20938
   0.21572    5.69144   30.27666    7.20145   33.98808
   0.22074    6.00955   30.93354    7.64224   34.80251
   0.22575    6.35272   31.61896    8.12107   35.65483
   0.23077    6.72357   32.33458    8.64226   36.54729
   0.23579    7.12502   33.08217    9.21071   37.48223
   0.24080    7.56042   33.86356    9.83205   38.46210
   0.24582    8.03356   34.68071   10.51269   39.48938
   0.25084    8.54873   35.53565   11.26003   40.56661
   0.25585    9.11085   36.43045   12.08253   41.69625
   0.26087    9.72552   37.36723   12.99001   42.88066
   0.26589   10.39918   38.34814   13.99378   44.12201
   0.27090   11.13919   39.37519   15.10695   45.42196
   0.27592   11.95407   40.45035   16.34470   46.78164
   0.28094   12.85357   41.57529   17.72470   48.20117
   0.28595   13.84901   42.75125   19.26739   49.67927
   0.29097   14.95341   43.97892   20.99652   51.21272
   0.29599   16.18184   45.25804   22.93955   52.79542
   0.30100   17.55168   46.58699   25.12807   54.41732
   0.30602   19.08291   47.96236   27.59822   56.06292
   0.31104   20.79844   49.37811   30.39079   57.70929
   0.31605   22.72430   50.82455   33.55099   59.32344
   0.32107   24.88968   52.28718   37.12750   60.85906
   0.32609   27.32682   53.74494   41.17037   62.25245
   0.33110   30.07019   55.16835   45.72705   63.41811
   0.33612   33.15514   56.51698   50.83574   64.24421
   0.34114   36.61530   57.73734   56.51540   64.58931
   0.34615   40.47851   58.76046   62.75154   64.28253
   0.35117   44.76118   59.50121   69.47890   63.12991
   0.35619   49.46103   59.85990   76.56373   60.93098
   0.36120   54.55001   59.72757   83.79222   57.50702
   0.36622   59.96902   58.99519   90.87363   52.73868
   0.37124   65.62867   57.56651   97.46529   46.60289
    0.3763    71.4177    55.3683   103.2184    39.1929
    0.3813    77.2169    52.3535   107.8284    30.7093
    0.3863    82.9105    48.4909   111.0695    21.4257
    0.3913    88.3844    43.7488   112.7990    11.6487
    0.3963    93.5055    38.0832   112.9438     1.6963
    0.4013    98.0911    31.4497   111.4921    -8.1025
    0.4064   101.8886    23.8435   108.5056   -17.4079
    0.4114   104.5885    15.3558   104.1402   -25.8893
    0.4164   105.8797     6.2193    98.6518   -33.2682
    0.4214   105.5326    -3.1879    92.3711   -39.3634
    0.4264   103.4763   -12.3932    85.6534   -44.1142
   0.43144   99.83356  -20.92088   78.82674  -47.57260
   0.43645   94.89538  -28.38667   72.15540  -49.87228
   0.44147   89.05149  -34.55747   65.82607  -51.19065
   0.44649   82.70815  -39.36198   59.95201  -51.71595
   0.45151   76.22402  -42.86135   54.58715  -51.62497
   0.45652   69.87582  -45.20214   49.74252  -51.07154
   0.46154   63.85236  -46.57026   45.40168  -50.18252
   0.46656   58.26485  -47.15700   41.53199  -49.05874
   0.47157   53.16497  -47.13813   38.09315  -47.77807
   0.47659   48.56304  -46.66434   35.04258  -46.39943
   0.48161   44.44320  -45.85894   32.33869  -44.96656
   0.48662   40.77478  -44.81933   29.94267  -43.51148
   0.49164   37.52011  -43.62080   27.81935  -42.05717
   0.49666   34.63961  -42.32042   25.93756  -40.61995
   0.50167   32.09464  -40.96081   24.26996  -39.21114
   0.50669   29.84929  -39.57342   22.79286  -37.83836
   0.51171   27.87120  -38.18124   21.48593  -36.50667
   0.51672   26.13171  -36.80083   20.33179  -35.21931
   0.52174   24.60590  -35.44421   19.31575  -33.97828
   0.52676   23.27235  -34.11999   18.42541  -32.78489
   0.53177   22.11286  -32.83453   17.65043  -31.64011
   0.53679   21.11208  -31.59272   16.98219  -30.54490
   0.54181   20.25717  -30.39865   16.41354  -29.50055
   0.54682   19.53746  -29.25616   15.93853  -28.50886
   0.55184   18.94401  -28.16930   15.55203  -27.57251
   0.55686   18.46926  -27.14284   15.24941  -26.69518
   0.56187   18.10647  -26.18262   15.02608  -25.88180
   0.56689   17.84918  -25.29579   14.87686  -25.13864
   0.57191   17.69041  -24.49109   14.79534  -24.47325
   0.57692   17.62182  -23.77889   14.77304  -23.89422
   0.58194   17.63264  -23.17081   14.79860  -23.41051
   0.58696   17.70859  -22.67912   14.85700  -23.03040
   0.59197   17.83085  -22.31544   14.92927  -22.75989
   0.59699   17.97549  -22.08885   14.99274  -22.60073
   0.60201   18.11363  -22.00334   15.02245  -22.54845
   0.60702   18.21292  -22.05524   14.99354  -22.59083
   0.61204   18.24039  -22.23112   14.88458  -22.70770
   0.61706   18.16661  -22.50697   14.68090  -22.87232
   0.62207   17.97004  -22.84967   14.37714  -23.05451
   0.62709   17.64073  -23.22043   13.97791  -23.22468
   0.63211   17.18179  -23.58003   13.49651  -23.35764
   0.63712   16.60823  -23.89394   12.95209  -23.43529
   0.64214   15.94377  -24.13615   12.36625  -23.44750
   0.64716   15.21634  -24.29101   11.75994  -23.39152
   0.65217   14.45397  -24.35278   11.15136  -23.27033
   0.65719   13.68164  -24.32388   10.55486  -23.09068
   0.66221   12.91958  -24.21220    9.98082  -22.86132
   0.66722   12.18281  -24.02888    9.43596  -22.59157
   0.67224   11.48135  -23.78616    8.92406  -22.29038
   0.67726   10.82117  -23.49614    8.44662  -21.96583
   0.68227   10.20504  -23.16987    8.00360  -21.62486
   0.68729    9.63341  -22.81699    7.59384  -21.27325
   0.69231    9.10519  -22.44559    7.21560  -20.91569
   0.69732    8.61829  -22.06230    6.86674  -20.55587
   0.70234    8.17009  -21.67245    6.54503  -20.19670
   0.70736    7.75769  -21.28024    6.24819  -19.84039
   0.71237    7.37816  -20.88883    5.97406  -19.48858
   0.71739    7.02862  -20.50075    5.72057  -19.14249
   0.72241    6.70637  -20.11780    5.48584  -18.80298
   0.72742    6.40890  -19.74129    5.26813  -18.47065
   0.73244    6.13387  -19.37220    5.06587  -18.14587
   0.73746    5.87920  -19.01117    4.87765  -17.82885
   0.74247    5.64298  -18.65861    4.70218  -17.51970
   0.74749    5.42351  -18.31474    4.53833  -17.21840
   0.75251    5.21924  -17.97965    4.38507  -16.92487
   0.75753    5.02883  -17.65333    4.24148  -16.63900
   0.76254    4.85102  -17.33569    4.10675  -16.36063
   0.76756    4.68473  -17.02656    3.98015  -16.08956
   0.77258    4.52897  -16.72578    3.86100  -15.82558
   0.77759    4.38287  -16.43313    3.74873  -15.56848
   0.78261    4.24564  -16.14834    3.64281  -15.31803
   0.78763    4.11656  -15.87119    3.54274  -15.07401
   0.79264    3.99501  -15.60140    3.44812  -14.83618
   0.79766    3.88041  -15.33873    3.35854  -14.60432
   0.80268    3.77225  -15.08290    3.27367  -14.37821
   0.80769    3.67007  -14.83367    3.19317  -14.15765
   0.81271    3.57345  -14.59078    3.11678  -13.94241
   0.81773    3.48200  -14.35398    3.04422  -13.73228
   0.82274    3.39540  -14.12305    2.97527  -13.52709
   0.82776    3.31332  -13.89774    2.90971  -13.32663
   0.83278    3.23548  -13.67783    2.84734  -13.13072
   0.83779    3.16164  -13.46311    2.78800  -12.93919
   0.84281    3.09157  -13.25337    2.73152  -12.75186
   0.84783    3.02504  -13.04841    2.67776  -12.56859
   0.85284    2.96188  -12.84804    2.62659  -12.38919
   0.85786    2.90191  -12.65206    2.57788  -12.21354
   0.86288    2.84498  -12.46031    2.53154  -12.04147
   0.86789    2.79094  -12.27261    2.48747  -11.87287
   0.87291    2.73967  -12.08881    2.44558  -11.70759
   0.87793    2.69106  -11.90875    2.40580  -11.54549
   0.88294    2.64500  -11.73226    2.36806  -11.38648
   0.88796    2.60141  -11.55922    2.33229  -11.23041
   0.89298    2.56021  -11.38948    2.29846  -11.07720
   0.89799    2.52132  -11.22292    2.26652  -10.92672
   0.90301    2.48470  -11.05939    2.23643  -10.77887
   0.90803    2.45028  -10.89880    2.20817  -10.63356
   0.91304    2.41804  -10.74101    2.18173  -10.49069
   0.91806    2.38794  -10.58592    2.15708  -10.35019
   0.92308    2.35996  -10.43343    2.13423  -10.21196
   0.92809    2.33409  -10.28343    2.11318  -10.07593
   0.93311    2.31033  -10.13585    2.09395   -9.94204
  0.938127   2.288687  -9.990577   2.076560  -9.810211
  0.943144   2.269176  -9.847554   2.061037  -9.680392
  0.948161   2.251823  -9.706697   2.047422  -9.552538
  0.953177   2.236669  -9.567950   2.035765  -9.426609
  0.958194   2.223761  -9.431255   2.026124  -9.302571
  0.963211   2.213160  -9.296574   2.018568  -9.180409
  0.968227   2.204935  -9.163856   2.013175  -9.060122
  0.973244   2.199171  -9.033106   2.010033  -8.941717
  0.978261   2.195962  -8.904306   2.009243  -8.825226
  0.983278   2.195413  -8.777465   2.010911  -8.710697
  0.988294   2.197647  -8.652632   2.015154  -8.598209
  0.993311   2.202794  -8.529855   2.022095  -8.487870
  0.998328   2.210992  -8.409223   2.031862  -8.379814
  1.003345   2.222394  -8.290853   2.044585  -8.274218
  1.008361   2.237158  -8.174897   2.060388  -8.171304
  1.013378   2.255444  -8.061566   2.079388  -8.071339
  1.018395   2.277409  -7.951099   2.101678  -7.974653
  1.023411   2.303206  -7.843809   2.127323  -7.881630
  1.028428   2.332964  -7.740055   2.156342  -7.792723
  1.033445   2.366788  -7.640279   2.188688  -7.708445
  1.038462   2.404729  -7.544993   2.224232  -7.629375
  1.043478   2.446784  -7.454782   2.262731  -7.556146
  1.048495   2.492856  -7.370312   2.303807  -7.489426
  1.053512   2.542733  -7.292312   2.346915  -7.429899
  1.058529   2.596063  -7.221577   2.391325  -7.378227
  1.063545   2.652321  -7.158919   2.436098  -7.334991
  1.068562   2.710774  -7.105172   2.480090  -7.300639
  1.073579   2.770467  -7.061100   2.521961  -7.275415
  1.078595   2.830196  -7.027378   2.560224  -7.259288
  1.083612   2.888520  -7.004488   2.593304  -7.251878
  1.088629   2.943780  -6.992653   2.619640  -7.252430
  1.093645   2.994154  -6.991753   2.637804  -7.259785
  1.098662   3.037741  -7.001266   2.646617  -7.272428
  1.103679   3.072673  -7.020192   2.645270  -7.288548
  1.108696   3.097254  -7.047100   2.633395  -7.306171
  1.113712   3.110103  -7.080090   2.611109  -7.323284
  1.118729   3.110275  -7.116968   2.578997  -7.337989
  1.123746   3.097358  -7.155325   2.538048  -7.348635
  1.128763   3.071524  -7.192716   2.489552  -7.353896
  1.133779   3.033497  -7.226836   2.434974  -7.352839
  1.138796   2.984482  -7.255686   2.375847  -7.344912
  1.143813   2.926053  -7.277635   2.313659  -7.329918
  1.148829   2.860006  -7.291523   2.249778  -7.307964
  1.153846   2.788215  -7.296669   2.185400  -7.279389
  1.158863   2.712515  -7.292810   2.121527  -7.244694
  1.163880   2.634602  -7.280051   2.058964  -7.204476
  1.168896   2.555969  -7.258800   1.998320  -7.159387
  1.173913   2.477872  -7.229652   1.940043  -7.110078
  1.178930   2.401326  -7.193346   1.884434  -7.057185
  1.183947   2.327111  -7.150685   1.831678  -7.001296
  1.188963   2.255809  -7.102468   1.781869  -6.942950
  1.193980   2.187813  -7.049502   1.735027  -6.882630
  1.198997   2.123375  -6.992516   1.691118  -6.820755
  1.204013   2.062624  -6.932191   1.650074  -6.757697
  1.209030   2.005602  -6.869134   1.611801  -6.693769
  1.214047   1.952282  -6.803887   1.576188  -6.629240
  1.219064   1.902588  -6.736912   1.543117  -6.564339
  1.224080   1.856411  -6.668627   1.512468  -6.499258
  1.229097   1.813621  -6.599363   1.484123  -6.434156
  1.234114   1.774078  -6.529435   1.457964  -6.369174
  1.239130   1.737639  -6.459074   1.433886  -6.304417
  1.244147   1.704157  -6.388503   1.411785  -6.239984
  1.249164   1.673497  -6.317895   1.391569  -6.175956
  1.254181   1.645523  -6.247399   1.373151  -6.112398
  1.259197   1.620114  -6.177149   1.356455  -6.049372
  1.264214   1.597156  -6.107242   1.341411  -5.986930
  1.269231   1.576546  -6.037785   1.327956  -5.925120
  1.274248   1.558192  -5.968850   1.316034  -5.863990
  1.279264   1.542009  -5.900510   1.305597  -5.803579
  1.284281   1.527923  -5.832842   1.296597  -5.743934
  1.289298   1.515871  -5.765898   1.288993  -5.685099
  1.294314   1.505790  -5.699740   1.282746  -5.627126
  1.299331   1.497632  -5.634443   1.277817  -5.570065
  1.304348   1.491350  -5.570053   1.274168  -5.513973
  1.309365   1.486901  -5.506650   1.271755  -5.458907
  1.314381   1.484243  -5.444291   1.270535  -5.404933
  1.319398   1.483340  -5.383063   1.270455  -5.352122
  1.324415   1.484151  -5.323044   1.271457  -5.300547
  1.329432   1.486634  -5.264319   1.273469  -5.250281
  1.334448   1.490745  -5.206993   1.276412  -5.201403
  1.339465   1.496431  -5.151161   1.280190  -5.153989
  1.344482   1.503629  -5.096939   1.284689  -5.108112
  1.349498   1.512267  -5.044458   1.289781  -5.063841
  1.354515   1.522253  -4.993842   1.295317  -5.021231
  1.359532   1.533474  -4.945226   1.301128  -4.980320
  1.364548   1.545791  -4.898756   1.307027  -4.941131
  1.369565   1.559034  -4.854570   1.312811  -4.903652
  1.374582   1.572996  -4.812796   1.318267  -4.867837
  1.379599   1.587434  -4.773554   1.323175  -4.833603
  1.384615   1.602061  -4.736927   1.327324  -4.800818
  1.389632   1.616558  -4.702960   1.330519  -4.769305
  1.394649   1.630570  -4.671633   1.332597  -4.738848
  1.399666   1.643727  -4.642881   1.333435  -4.709186
  1.404682   1.655653  -4.616544   1.332963  -4.680040
  1.409699   1.665988  -4.592391   1.331171  -4.651113
  1.414716   1.674410  -4.570102   1.328106  -4.622110
  1.419732   1.680655  -4.549294   1.323878  -4.592760
  1.424749   1.684540  -4.529512   1.318645  -4.562815
  1.429766   1.685973  -4.510282   1.312607  -4.532073
  1.434783   1.684969  -4.491107   1.305992  -4.500378
  1.439799   1.681643  -4.471488   1.299044  -4.467625
  1.444816   1.676203  -4.450994   1.292008  -4.433756
  1.449833   1.668944  -4.429241   1.285127  -4.398759
  1.454850   1.660216  -4.405900   1.278626  -4.362659
  1.459866   1.650414  -4.380756   1.272712  -4.325514
  1.464883   1.639950  -4.353665   1.267572  -4.287404
  1.469900   1.629235  -4.324554   1.263365  -4.248428
  1.474916   1.618665  -4.293437   1.260233  -4.208698
  1.479933   1.608609  -4.260377   1.258294  -4.168332
  1.484950   1.599401  -4.225500   1.257648  -4.127450
  1.489967   1.591332  -4.188957   1.258382  -4.086180
  1.494983   1.584660  -4.150940   1.260567  -4.044641
  1.500000   1.579598  -4.111645   1.264265  -4.002964
# 
# 09/21/2014 at 14:52 YAMBO @ PC_amd [start]
# 09/21/2014 at 14:52                [end]
#  
# Timing   [Min/Max/Average]: 04s/04s/04s
#
# .-Input file : yambo.in
# | optics                       # [R OPT] Optics
# | bse                          # [R BSE] Bethe Salpeter Equation.
# | bss                          # [R BSS] Bethe Salpeter Equation solver
# | tddft                        # [R   K] Use TDDFT kernel
# | BoseTemp= 0.000000     eV    # Bosonic Temperature
# | FFTGvecs=  995         RL    # [FFT] Plane-waves
# | BS_CPU= ""                   # [PARALLEL] CPUs for each role
# | BS_ROLEs= ""                 # [PARALLEL] CPUs roles (k,eh,t)
# | BS_nCPU_invert= 1            # [PARALLEL] CPUs for matrix inversion
# | BS_nCPU_diago= 1             # [PARALLEL] CPUs for matrix diagonalization
# | NonPDirs= "X"                # [X/BSS] Non periodic chartesian directions (X,Y,Z,XY...)
# | BSEmod= "resonant"           # [BSE] resonant/causal/coupling
# | BSKmod= "ALDA"               # [BSE] IP/Hartree/HF/ALDA/SEX/BSfxc
# | BSSmod= "hd"                 # [BSS] (h)aydock/(d)iagonalization/(i)nversion/(t)ddft`
# | % BEnRange
# |  0.000000 | 1.500000 | eV    # [BSS] Energy range
# | %
# | % BDmRange
# |   0.03000 |  0.10000 | eV    # [BSS] Damping range
# | %
# | BEnSteps= 300                # [BSS] Energy steps
# | % BLongDir
# |  0.000    |0.1000E-4 | 0.000    |        # [BSS] [cc] Electric Field
# | %
# | % BSEBands
# |  23 | 27 |                   # [BSK] Bands range
# | %
# | BSHayTrs=   0.0100           # [BSS] [o/o] Haydock treshold. Strict(>0)/Average(<0)
