#  __      __   ______   __       __  _______    ______     
# |  \    /  \ /      \ |  \     /  \|       \  /      \    
#  \$$\  /  $$|  $$$$$$\| $$\   /  $$| $$$$$$$\|  $$$$$$\   
#   \$$\/  $$ | $$__| $$| $$$\ /  $$$| $$__/ $$| $$  | $$   
#    \$$  $$  | $$    $$| $$$$\  $$$$| $$    $$| $$  | $$   
#     \$$$$   | $$$$$$$$| $$\$$ $$ $$| $$$$$$$\| $$  | $$   
#     | $$    | $$  | $$| $$ \$$$| $$| $$__/ $$| $$__/ $$   
#     | $$    | $$  | $$| $$  \$ | $$| $$    $$ \$$    $$   
#      \$$     \$$   \$$ \$$      \$$ \$$$$$$$   \$$$$$$    
#                                                           
# GPL Version 4.4.0 Revision 148. (Based on r.16920 h.961a8d
#                  MPI+SLK+OpenMP Build                     
#                http://www.yambo-code.org                  
#
# Absorption @ Q(1) [q->0 direction] :0.1000E-4  0.000     0.000   
#
#
# - Energies      are  Analyt. E
# - Wavefunctions are +AMGB (for 2D systems)(C)
#
# - The Green`s function is Retarded -
# - Using the Length Gauge -
# - [r,Vnl] *is* included -
#
#
#    E/ev[1]      EPS-Im[2]    EPS-Re[3]    EPSo-Im[4]   EPSo-Re[5]
#
    0.000000     0.000000     1.537762     0.000000     1.358413
   0.1001E-1    0.6348E-4     1.538       0.1905E-4     1.358   
   0.2002E-1    0.1270E-3     1.538       0.3810E-4     1.358   
   0.3003E-1    0.1905E-3     1.538       0.5715E-4     1.358   
   0.4004E-1    0.2540E-3     1.538       0.7621E-4     1.358   
   0.5005E-1    0.3175E-3     1.538       0.9526E-4     1.358   
   0.6006E-1    0.3810E-3     1.538       0.1143E-3     1.358   
   0.7007E-1    0.4446E-3     1.538       0.1334E-3     1.358   
   0.8008E-1    0.5082E-3     1.538       0.1525E-3     1.358   
   0.9009E-1    0.5719E-3     1.538       0.1715E-3     1.358   
   0.1001       0.6356E-3     1.538       0.1906E-3     1.359   
   0.1101       0.6993E-3     1.538       0.2097E-3     1.359   
   0.1201       0.7631E-3     1.538       0.2288E-3     1.359   
   0.1301       0.8269E-3     1.538       0.2479E-3     1.359   
   0.1401       0.8908E-3     1.538       0.2670E-3     1.359   
   0.1502       0.9547E-3     1.538       0.2861E-3     1.359   
   0.1602       0.1019E-2     1.539       0.3052E-3     1.359   
   0.1702       0.1083E-2     1.539       0.3244E-3     1.359   
   0.1802       0.1147E-2     1.539       0.3435E-3     1.359   
   0.1902       0.1211E-2     1.539       0.3627E-3     1.359   
   0.2002       0.1276E-2     1.539       0.3818E-3     1.359   
   0.2102       0.1340E-2     1.539       0.4010E-3     1.359   
   0.2202       0.1405E-2     1.539       0.4202E-3     1.359   
   0.2302       0.1469E-2     1.539       0.4394E-3     1.359   
   0.2402       0.1534E-2     1.540       0.4587E-3     1.359   
   0.2503       0.1599E-2     1.540       0.4779E-3     1.359   
   0.2603       0.1664E-2     1.540       0.4971E-3     1.359   
   0.2703       0.1729E-2     1.540       0.5164E-3     1.359   
   0.2803       0.1794E-2     1.540       0.5357E-3     1.359   
   0.2903       0.1859E-2     1.540       0.5550E-3     1.359   
   0.3003       0.1925E-2     1.541       0.5743E-3     1.359   
   0.3103       0.1991E-2     1.541       0.5937E-3     1.359   
   0.3203       0.2056E-2     1.541       0.6130E-3     1.359   
   0.3303       0.2122E-2     1.541       0.6324E-3     1.359   
   0.3403       0.2188E-2     1.541       0.6518E-3     1.360   
   0.3504       0.2255E-2     1.542       0.6712E-3     1.360   
   0.3604       0.2321E-2     1.542       0.6907E-3     1.360   
   0.3704       0.2388E-2     1.542       0.7102E-3     1.360   
   0.3804       0.2454E-2     1.542       0.7297E-3     1.360   
   0.3904       0.2521E-2     1.543       0.7492E-3     1.360   
   0.4004       0.2588E-2     1.543       0.7687E-3     1.360   
   0.4104       0.2656E-2     1.543       0.7883E-3     1.360   
   0.4204       0.2723E-2     1.543       0.8079E-3     1.360   
   0.4304       0.2791E-2     1.544       0.8275E-3     1.360   
   0.4404       0.2859E-2     1.544       0.8472E-3     1.360   
   0.4505       0.2927E-2     1.544       0.8668E-3     1.360   
   0.4605       0.2995E-2     1.545       0.8865E-3     1.360   
   0.4705       0.3064E-2     1.545       0.9063E-3     1.361   
   0.4805       0.3132E-2     1.545       0.9260E-3     1.361   
   0.4905       0.3201E-2     1.545       0.9458E-3     1.361   
   0.5005       0.3271E-2     1.546       0.9657E-3     1.361   
   0.5105       0.3340E-2     1.546       0.9855E-3     1.361   
   0.5205       0.3410E-2     1.546       0.1005E-2     1.361   
   0.5305       0.3480E-2     1.547       0.1025E-2     1.361   
   0.5405       0.3550E-2     1.547       0.1045E-2     1.361   
   0.5506       0.3621E-2     1.548       0.1065E-2     1.361   
   0.5606       0.3691E-2     1.548       0.1085E-2     1.361   
   0.5706       0.3762E-2     1.548       0.1105E-2     1.362   
   0.5806       0.3834E-2     1.549       0.1126E-2     1.362   
   0.5906       0.3905E-2     1.549       0.1146E-2     1.362   
   0.6006       0.3977E-2     1.549       0.1166E-2     1.362   
   0.6106       0.4050E-2     1.550       0.1186E-2     1.362   
   0.6206       0.4122E-2     1.550       0.1206E-2     1.362   
   0.6306       0.4195E-2     1.551       0.1227E-2     1.362   
   0.6406       0.4268E-2     1.551       0.1247E-2     1.362   
   0.6507       0.4342E-2     1.551       0.1267E-2     1.362   
   0.6607       0.4416E-2     1.552       0.1288E-2     1.363   
   0.6707       0.4490E-2     1.552       0.1308E-2     1.363   
   0.6807       0.4564E-2     1.553       0.1329E-2     1.363   
   0.6907       0.4639E-2     1.553       0.1349E-2     1.363   
   0.7007       0.4715E-2     1.554       0.1370E-2     1.363   
   0.7107       0.4790E-2     1.554       0.1391E-2     1.363   
   0.7207       0.4866E-2     1.555       0.1411E-2     1.363   
   0.7307       0.4943E-2     1.555       0.1432E-2     1.364   
   0.7407       0.5019E-2     1.556       0.1453E-2     1.364   
   0.7508       0.5097E-2     1.556       0.1474E-2     1.364   
   0.7608       0.5174E-2     1.557       0.1495E-2     1.364   
   0.7708       0.5252E-2     1.557       0.1516E-2     1.364   
   0.7808       0.5331E-2     1.558       0.1537E-2     1.364   
   0.7908       0.5409E-2     1.558       0.1558E-2     1.364   
      0.8008       0.0055       1.5588       0.0016       1.3646
      0.8108       0.0056       1.5594       0.0016       1.3648
      0.8208       0.0056       1.5600       0.0016       1.3649
      0.8308       0.0057       1.5605       0.0016       1.3651
      0.8408       0.0058       1.5611       0.0017       1.3653
      0.8509       0.0059       1.5617       0.0017       1.3654
      0.8609       0.0060       1.5623       0.0017       1.3656
      0.8709       0.0061       1.5629       0.0017       1.3658
      0.8809       0.0061       1.5635       0.0017       1.3659
      0.8909       0.0062       1.5641       0.0018       1.3661
      0.9009       0.0063       1.5647       0.0018       1.3663
      0.9109       0.0064       1.5654       0.0018       1.3665
      0.9209       0.0065       1.5660       0.0018       1.3667
      0.9309       0.0066       1.5667       0.0019       1.3669
      0.9409       0.0066       1.5673       0.0019       1.3670
      0.9510       0.0067       1.5680       0.0019       1.3672
      0.9610       0.0068       1.5687       0.0019       1.3674
      0.9710       0.0069       1.5693       0.0019       1.3676
      0.9810       0.0070       1.5700       0.0020       1.3678
      0.9910       0.0071       1.5707       0.0020       1.3680
      1.0010       0.0072       1.5715       0.0020       1.3682
      1.0110       0.0073       1.5722       0.0020       1.3684
      1.0210       0.0074       1.5729       0.0021       1.3686
      1.0310       0.0074       1.5736       0.0021       1.3688
      1.0410       0.0075       1.5744       0.0021       1.3690
      1.0511       0.0076       1.5752       0.0021       1.3692
      1.0611       0.0077       1.5759       0.0021       1.3695
      1.0711       0.0078       1.5767       0.0022       1.3697
      1.0811       0.0079       1.5775       0.0022       1.3699
      1.0911       0.0080       1.5783       0.0022       1.3701
      1.1011       0.0081       1.5791       0.0022       1.3703
      1.1111       0.0082       1.5799       0.0023       1.3706
      1.1211       0.0083       1.5807       0.0023       1.3708
      1.1311       0.0084       1.5816       0.0023       1.3710
      1.1411       0.0085       1.5824       0.0023       1.3712
      1.1512       0.0086       1.5832       0.0024       1.3715
      1.1612       0.0087       1.5841       0.0024       1.3717
      1.1712       0.0088       1.5850       0.0024       1.3720
      1.1812       0.0089       1.5859       0.0024       1.3722
      1.1912       0.0090       1.5868       0.0025       1.3724
      1.2012       0.0091       1.5877       0.0025       1.3727
      1.2112       0.0092       1.5886       0.0025       1.3729
      1.2212       0.0093       1.5895       0.0025       1.3732
      1.2312       0.0094       1.5904       0.0025       1.3734
      1.2412       0.0095       1.5914       0.0026       1.3737
      1.2513       0.0096       1.5923       0.0026       1.3740
      1.2613       0.0098       1.5933       0.0026       1.3742
      1.2713       0.0099       1.5943       0.0026       1.3745
      1.2813       0.0100       1.5953       0.0027       1.3747
      1.2913       0.0101       1.5963       0.0027       1.3750
      1.3013       0.0102       1.5973       0.0027       1.3753
      1.3113       0.0103       1.5983       0.0027       1.3756
      1.3213       0.0104       1.5994       0.0028       1.3758
      1.3313       0.0105       1.6004       0.0028       1.3761
      1.3413       0.0107       1.6015       0.0028       1.3764
      1.3514       0.0108       1.6025       0.0028       1.3767
      1.3614       0.0109       1.6036       0.0029       1.3770
      1.3714       0.0110       1.6047       0.0029       1.3773
      1.3814       0.0111       1.6058       0.0029       1.3775
      1.3914       0.0113       1.6069       0.0030       1.3778
      1.4014       0.0114       1.6081       0.0030       1.3781
      1.4114       0.0115       1.6092       0.0030       1.3784
      1.4214       0.0116       1.6104       0.0030       1.3787
      1.4314       0.0118       1.6115       0.0031       1.3790
      1.4414       0.0119       1.6127       0.0031       1.3793
      1.4515       0.0120       1.6139       0.0031       1.3797
      1.4615       0.0122       1.6151       0.0031       1.3800
      1.4715       0.0123       1.6163       0.0032       1.3803
      1.4815       0.0124       1.6176       0.0032       1.3806
      1.4915       0.0126       1.6188       0.0032       1.3809
      1.5015       0.0127       1.6201       0.0032       1.3812
      1.5115       0.0128       1.6213       0.0033       1.3816
      1.5215       0.0130       1.6226       0.0033       1.3819
      1.5315       0.0131       1.6239       0.0033       1.3822
      1.5415       0.0133       1.6252       0.0034       1.3826
      1.5516       0.0134       1.6266       0.0034       1.3829
      1.5616       0.0135       1.6279       0.0034       1.3832
      1.5716       0.0137       1.6293       0.0034       1.3836
      1.5816       0.0138       1.6306       0.0035       1.3839
      1.5916       0.0140       1.6320       0.0035       1.3843
      1.6016       0.0141       1.6334       0.0035       1.3846
      1.6116       0.0143       1.6348       0.0036       1.3850
      1.6216       0.0144       1.6363       0.0036       1.3853
      1.6316       0.0146       1.6377       0.0036       1.3857
      1.6416       0.0148       1.6392       0.0036       1.3861
      1.6517       0.0149       1.6407       0.0037       1.3864
      1.6617       0.0151       1.6422       0.0037       1.3868
      1.6717       0.0152       1.6437       0.0037       1.3872
      1.6817       0.0154       1.6452       0.0038       1.3875
      1.6917       0.0156       1.6468       0.0038       1.3879
      1.7017       0.0157       1.6483       0.0038       1.3883
      1.7117       0.0159       1.6499       0.0038       1.3887
      1.7217       0.0161       1.6515       0.0039       1.3891
      1.7317       0.0163       1.6531       0.0039       1.3895
      1.7417       0.0164       1.6547       0.0039       1.3898
      1.7518       0.0166       1.6564       0.0040       1.3902
      1.7618       0.0168       1.6580       0.0040       1.3906
      1.7718       0.0170       1.6597       0.0040       1.3910
      1.7818       0.0172       1.6614       0.0041       1.3914
      1.7918       0.0174       1.6632       0.0041       1.3919
      1.8018       0.0175       1.6649       0.0041       1.3923
      1.8118       0.0177       1.6666       0.0042       1.3927
      1.8218       0.0179       1.6684       0.0042       1.3931
      1.8318       0.0181       1.6702       0.0042       1.3935
      1.8418       0.0183       1.6720       0.0043       1.3939
      1.8519       0.0185       1.6739       0.0043       1.3944
      1.8619       0.0187       1.6757       0.0043       1.3948
      1.8719       0.0189       1.6776       0.0044       1.3952
      1.8819       0.0191       1.6795       0.0044       1.3957
      1.8919       0.0194       1.6814       0.0044       1.3961
      1.9019       0.0196       1.6834       0.0045       1.3966
      1.9119       0.0198       1.6853       0.0045       1.3970
      1.9219       0.0200       1.6873       0.0045       1.3975
      1.9319       0.0202       1.6893       0.0046       1.3979
      1.9419       0.0205       1.6913       0.0046       1.3984
      1.9520       0.0207       1.6934       0.0046       1.3988
      1.9620       0.0209       1.6955       0.0047       1.3993
      1.9720       0.0212       1.6976       0.0047       1.3998
      1.9820       0.0214       1.6997       0.0047       1.4002
      1.9920       0.0216       1.7018       0.0048       1.4007
      2.0020       0.0219       1.7040       0.0048       1.4012
      2.0120       0.0221       1.7062       0.0048       1.4017
      2.0220       0.0224       1.7084       0.0049       1.4022
      2.0320       0.0226       1.7106       0.0049       1.4026
      2.0420       0.0229       1.7129       0.0050       1.4031
      2.0521       0.0232       1.7152       0.0050       1.4036
      2.0621       0.0234       1.7175       0.0050       1.4041
      2.0721       0.0237       1.7199       0.0051       1.4046
      2.0821       0.0240       1.7222       0.0051       1.4051
      2.0921       0.0242       1.7246       0.0051       1.4057
      2.1021       0.0245       1.7271       0.0052       1.4062
      2.1121       0.0248       1.7295       0.0052       1.4067
      2.1221       0.0251       1.7320       0.0053       1.4072
      2.1321       0.0254       1.7345       0.0053       1.4077
      2.1421       0.0257       1.7371       0.0053       1.4083
      2.1522       0.0260       1.7396       0.0054       1.4088
      2.1622       0.0263       1.7422       0.0054       1.4093
      2.1722       0.0266       1.7449       0.0055       1.4099
      2.1822       0.0269       1.7475       0.0055       1.4104
      2.1922       0.0273       1.7502       0.0055       1.4110
      2.2022       0.0276       1.7529       0.0056       1.4115
      2.2122       0.0279       1.7557       0.0056       1.4121
      2.2222       0.0282       1.7585       0.0057       1.4127
      2.2322       0.0286       1.7613       0.0057       1.4132
      2.2422       0.0289       1.7642       0.0057       1.4138
      2.2523       0.0293       1.7671       0.0058       1.4144
      2.2623       0.0296       1.7700       0.0058       1.4150
      2.2723       0.0300       1.7730       0.0059       1.4155
      2.2823       0.0304       1.7760       0.0059       1.4161
      2.2923       0.0308       1.7790       0.0060       1.4167
      2.3023       0.0311       1.7821       0.0060       1.4173
      2.3123       0.0315       1.7852       0.0060       1.4179
      2.3223       0.0319       1.7884       0.0061       1.4185
      2.3323       0.0323       1.7916       0.0061       1.4191
      2.3423       0.0327       1.7948       0.0062       1.4197
      2.3524       0.0331       1.7981       0.0062       1.4204
      2.3624       0.0336       1.8014       0.0063       1.4210
      2.3724       0.0340       1.8047       0.0063       1.4216
      2.3824       0.0344       1.8081       0.0064       1.4223
      2.3924       0.0349       1.8116       0.0064       1.4229
      2.4024       0.0353       1.8151       0.0064       1.4235
      2.4124       0.0358       1.8186       0.0065       1.4242
      2.4224       0.0362       1.8222       0.0065       1.4248
      2.4324       0.0367       1.8258       0.0066       1.4255
      2.4424       0.0372       1.8295       0.0066       1.4261
      2.4525       0.0377       1.8332       0.0067       1.4268
      2.4625       0.0382       1.8370       0.0067       1.4275
      2.4725       0.0387       1.8408       0.0068       1.4282
      2.4825       0.0392       1.8446       0.0068       1.4288
      2.4925       0.0398       1.8486       0.0069       1.4295
      2.5025       0.0403       1.8525       0.0069       1.4302
      2.5125       0.0408       1.8566       0.0070       1.4309
      2.5225       0.0414       1.8607       0.0070       1.4316
      2.5325       0.0420       1.8648       0.0071       1.4323
      2.5425       0.0426       1.8690       0.0071       1.4330
      2.5526       0.0432       1.8732       0.0072       1.4337
      2.5626       0.0438       1.8775       0.0073       1.4345
      2.5726       0.0444       1.8819       0.0073       1.4352
      2.5826       0.0450       1.8863       0.0074       1.4359
      2.5926       0.0456       1.8908       0.0074       1.4367
      2.6026       0.0463       1.8954       0.0075       1.4374
      2.6126       0.0470       1.9000       0.0075       1.4382
      2.6226       0.0476       1.9047       0.0076       1.4389
      2.6326       0.0483       1.9095       0.0076       1.4397
      2.6426       0.0490       1.9143       0.0077       1.4404
      2.6527       0.0498       1.9192       0.0078       1.4412
      2.6627       0.0505       1.9242       0.0078       1.4420
      2.6727       0.0512       1.9292       0.0079       1.4428
      2.6827       0.0520       1.9343       0.0079       1.4436
      2.6927       0.0528       1.9395       0.0080       1.4444
      2.7027       0.0536       1.9448       0.0080       1.4452
      2.7127       0.0544       1.9501       0.0081       1.4460
      2.7227       0.0552       1.9555       0.0082       1.4468
      2.7327       0.0561       1.9610       0.0082       1.4476
      2.7427       0.0570       1.9666       0.0083       1.4484
      2.7528       0.0579       1.9723       0.0083       1.4492
      2.7628       0.0588       1.9781       0.0084       1.4501
      2.7728       0.0597       1.9840       0.0085       1.4509
      2.7828       0.0607       1.9899       0.0085       1.4518
      2.7928       0.0616       1.9960       0.0086       1.4526
      2.8028       0.0626       2.0021       0.0087       1.4535
      2.8128       0.0637       2.0083       0.0087       1.4544
      2.8228       0.0647       2.0147       0.0088       1.4552
      2.8328       0.0658       2.0211       0.0089       1.4561
      2.8428       0.0669       2.0277       0.0089       1.4570
      2.8529       0.0680       2.0343       0.0090       1.4579
      2.8629       0.0691       2.0411       0.0091       1.4588
      2.8729       0.0703       2.0480       0.0091       1.4597
      2.8829       0.0715       2.0550       0.0092       1.4606
      2.8929       0.0727       2.0621       0.0093       1.4616
      2.9029       0.0740       2.0693       0.0094       1.4625
      2.9129       0.0753       2.0767       0.0094       1.4634
      2.9229       0.0766       2.0842       0.0095       1.4644
      2.9329       0.0780       2.0918       0.0096       1.4653
      2.9429       0.0794       2.0996       0.0096       1.4663
      2.9530       0.0808       2.1075       0.0097       1.4673
      2.9630       0.0823       2.1155       0.0098       1.4682
      2.9730       0.0838       2.1237       0.0099       1.4692
      2.9830       0.0854       2.1320       0.0099       1.4702
     2.99299      0.08698      2.14050      0.01002      1.47119
     3.00300      0.08862      2.14914      0.01010      1.47220
     3.01301      0.09030      2.15794      0.01018      1.47321
     3.02302      0.09203      2.16690      0.01026      1.47423
     3.03303      0.09382      2.17604      0.01034      1.47526
     3.04304      0.09565      2.18534      0.01042      1.47629
     3.05305      0.09753      2.19483      0.01050      1.47734
     3.06306      0.09947      2.20450      0.01058      1.47839
     3.07307      0.10146      2.21437      0.01067      1.47945
     3.08308      0.10352      2.22442      0.01075      1.48052
     3.09309      0.10563      2.23468      0.01084      1.48160
     3.10310      0.10781      2.24514      0.01092      1.48268
     3.11311      0.11006      2.25582      0.01101      1.48378
     3.12312      0.11237      2.26671      0.01110      1.48488
     3.13313      0.11475      2.27783      0.01118      1.48599
     3.14314      0.11722      2.28918      0.01127      1.48711
     3.15315      0.11975      2.30077      0.01136      1.48824
     3.16316      0.12237      2.31261      0.01146      1.48938
     3.17317      0.12508      2.32470      0.01155      1.49053
     3.18318      0.12787      2.33705      0.01164      1.49169
     3.19319      0.13075      2.34968      0.01174      1.49286
     3.20320      0.13374      2.36258      0.01183      1.49403
     3.21321      0.13682      2.37577      0.01193      1.49522
     3.22322      0.14001      2.38926      0.01202      1.49641
     3.23323      0.14330      2.40306      0.01212      1.49762
     3.24324      0.14672      2.41717      0.01222      1.49883
     3.25325      0.15025      2.43162      0.01232      1.50006
     3.26326      0.15391      2.44640      0.01242      1.50129
     3.27327      0.15771      2.46153      0.01253      1.50254
     3.28328      0.16164      2.47703      0.01263      1.50379
     3.29329      0.16572      2.49290      0.01273      1.50506
     3.30330      0.16995      2.50917      0.01284      1.50633
     3.31331      0.17434      2.52584      0.01295      1.50762
     3.32332      0.17891      2.54293      0.01306      1.50892
     3.33333      0.18365      2.56045      0.01317      1.51023
     3.34334      0.18857      2.57842      0.01328      1.51155
     3.35335      0.19370      2.59686      0.01339      1.51288
     3.36336      0.19903      2.61579      0.01350      1.51422
     3.37337      0.20459      2.63522      0.01362      1.51557
     3.38338      0.21037      2.65517      0.01373      1.51694
     3.39339      0.21640      2.67567      0.01385      1.51831
     3.40340      0.22269      2.69673      0.01397      1.51970
     3.41341      0.22925      2.71838      0.01409      1.52110
     3.42342      0.23610      2.74065      0.01421      1.52251
     3.43343      0.24325      2.76356      0.01433      1.52393
     3.44344      0.25074      2.78713      0.01445      1.52537
     3.45345      0.25856      2.81140      0.01458      1.52682
     3.46346      0.26675      2.83639      0.01471      1.52828
     3.47347      0.27533      2.86213      0.01483      1.52975
     3.48348      0.28433      2.88867      0.01496      1.53124
     3.49349      0.29376      2.91603      0.01510      1.53274
     3.50350      0.30367      2.94425      0.01523      1.53425
     3.51351      0.31407      2.97337      0.01536      1.53578
     3.52352      0.32501      3.00343      0.01550      1.53732
     3.53353      0.33653      3.03448      0.01564      1.53887
     3.54354      0.34865      3.06657      0.01578      1.54043
     3.55355      0.36143      3.09974      0.01592      1.54202
     3.56356      0.37491      3.13405      0.01606      1.54361
     3.57357      0.38915      3.16954      0.01620      1.54522
     3.58358      0.40420      3.20630      0.01635      1.54684
     3.59359      0.42013      3.24436      0.01650      1.54848
     3.60360      0.43699      3.28381      0.01665      1.55013
     3.61361      0.45487      3.32472      0.01680      1.55180
     3.62362      0.47385      3.36716      0.01696      1.55348
     3.63363      0.49402      3.41121      0.01711      1.55518
     3.64364      0.51548      3.45695      0.01727      1.55690
     3.65365      0.53834      3.50449      0.01743      1.55863
     3.66366      0.56271      3.55392      0.01759      1.56037
     3.67367      0.58874      3.60534      0.01776      1.56213
     3.68368      0.61658      3.65886      0.01792      1.56391
     3.69369      0.64639      3.71461      0.01809      1.56571
     3.70370      0.67836      3.77270      0.01826      1.56752
     3.71371      0.71269      3.83326      0.01843      1.56935
     3.72372      0.74962      3.89645      0.01861      1.57119
     3.73373      0.78942      3.96240      0.01879      1.57306
     3.74374      0.83237      4.03127      0.01897      1.57494
     3.75375      0.87881      4.10322      0.01915      1.57684
     3.76376      0.92910      4.17843      0.01933      1.57876
     3.77377      0.98369      4.25706      0.01952      1.58069
     3.78378      1.04304      4.33931      0.01971      1.58265
     3.79379      1.10770      4.42534      0.01990      1.58462
     3.80380      1.17829      4.51534      0.02010      1.58661
     3.81381      1.25554      4.60950      0.02029      1.58863
     3.82382      1.34025      4.70795      0.02050      1.59066
     3.83383      1.43336      4.81086      0.02070      1.59271
     3.84384      1.53594      4.91832      0.02090      1.59478
     3.85385      1.64923      5.03040      0.02111      1.59688
     3.86386      1.77464      5.14707      0.02133      1.59899
     3.87387      1.91382      5.26821      0.02154      1.60113
     3.88388      2.06866      5.39356      0.02176      1.60328
     3.89389      2.24134      5.52266      0.02198      1.60546
     3.90390      2.43433      5.65475      0.02221      1.60766
     3.91391      2.65050      5.78872      0.02243      1.60989
     3.92392      2.89310      5.92296      0.02266      1.61213
     3.93393      3.16575      6.05515      0.02290      1.61440
     3.94394      3.47248      6.18209      0.02314      1.61669
     3.95395      3.81761      6.29940      0.02338      1.61901
     3.96396      4.20568      6.40116      0.02362      1.62135
     3.97397      4.64102      6.47948      0.02387      1.62371
     3.98398      5.12739      6.52407      0.02413      1.62610
     3.99399      5.66706      6.52181      0.02438      1.62852
     4.00400      6.25978      6.45644      0.02464      1.63096
     4.01401      6.90101      6.30863      0.02491      1.63342
     4.02402      7.57994      6.05685      0.02518      1.63592
     4.03403      8.27726      5.67923      0.02545      1.63844
     4.04404      8.96358      5.15706      0.02573      1.64098
     4.05405      9.59911      4.47990      0.02601      1.64356
     4.06406     10.13641      3.65129      0.02630      1.64616
     4.07407     10.52672      2.69364      0.02659      1.64879
     4.08408     10.72936      1.64913      0.02688      1.65145
     4.09409     10.72133      0.57538      0.02718      1.65414
     4.10410     10.50357     -0.46443      0.02749      1.65686
     4.11411     10.10067     -1.41365      0.02780      1.65961
     4.12412      9.55430     -2.23141      0.02811      1.66239
     4.13413      8.91341     -2.89685      0.02843      1.66520
     4.14414      8.22505     -3.40763      0.02876      1.66805
     4.15415      7.52823     -3.77508      0.02909      1.67093
     4.16416      6.85161     -4.01828      0.02943      1.67384
     4.17417      6.21376     -4.15914      0.02977      1.67678
     4.18418      5.62498     -4.21912      0.03012      1.67976
     4.19419      5.08935     -4.21731      0.03047      1.68277
     4.20420      4.60695     -4.16973      0.03083      1.68582
     4.21421      4.17532     -4.08929      0.03120      1.68890
     4.22422      3.79068     -3.98609      0.03157      1.69202
     4.23423      3.44859     -3.86783      0.03195      1.69518
     4.24424      3.14460     -3.74031      0.03234      1.69837
     4.25425      2.87437     -3.60783      0.03273      1.70160
     4.26426      2.63392     -3.47350      0.03313      1.70488
     4.27427      2.41962     -3.33957      0.03354      1.70819
     4.28428      2.22827     -3.20761      0.03396      1.71154
     4.29429      2.05705     -3.07872      0.03438      1.71494
     4.30430      1.90349     -2.95361      0.03481      1.71837
     4.31431      1.76543     -2.83273      0.03525      1.72185
     4.32432      1.64101     -2.71633      0.03570      1.72538
     4.33433      1.52861     -2.60453      0.03615      1.72894
     4.34434      1.42681     -2.49735      0.03662      1.73256
     4.35435      1.33440     -2.39470      0.03709      1.73621
     4.36436      1.25031     -2.29649      0.03757      1.73992
     4.37437      1.17363     -2.20258      0.03806      1.74367
     4.38438      1.10353     -2.11279      0.03856      1.74748
     4.39439      1.03932     -2.02696      0.03907      1.75133
     4.40440      0.98038     -1.94490      0.03960      1.75523
     4.41441      0.92617     -1.86643      0.04013      1.75919
     4.42442      0.87621     -1.79138      0.04067      1.76319
     4.43443      0.83008     -1.71956      0.04122      1.76726
     4.44444      0.78742     -1.65081      0.04179      1.77137
     4.45445      0.74788     -1.58496      0.04236      1.77554
     4.46446      0.71119     -1.52186      0.04295      1.77977
     4.47447      0.67708     -1.46137      0.04355      1.78406
     4.48448      0.64532     -1.40334      0.04416      1.78841
     4.49449      0.61570     -1.34765      0.04479      1.79282
     4.50450      0.58804     -1.29416      0.04543      1.79729
     4.51451      0.56218     -1.24276      0.04608      1.80182
     4.52452      0.53796     -1.19334      0.04675      1.80642
     4.53453      0.51526     -1.14581      0.04743      1.81108
     4.54454      0.49394     -1.10004      0.04812      1.81581
     4.55455      0.47391     -1.05597      0.04883      1.82061
     4.56456      0.45506     -1.01350      0.04956      1.82548
     4.57457      0.43730     -0.97255      0.05031      1.83042
     4.58458      0.42055     -0.93305      0.05107      1.83544
     4.59459      0.40474     -0.89491      0.05184      1.84053
     4.60460      0.38980     -0.85809      0.05264      1.84570
     4.61461      0.37567     -0.82251      0.05346      1.85095
     4.62462      0.36229     -0.78811      0.05429      1.85627
     4.63463      0.34961     -0.75484      0.05514      1.86168
     4.64464      0.33758     -0.72265      0.05602      1.86718
     4.65465      0.32617     -0.69148      0.05691      1.87276
     4.66466      0.31532     -0.66129      0.05783      1.87843
     4.67467      0.30501     -0.63203      0.05877      1.88418
     4.68468      0.29520     -0.60367      0.05973      1.89004
     4.69469      0.28586     -0.57616      0.06072      1.89598
     4.70470      0.27695     -0.54947      0.06173      1.90202
     4.71471      0.26846     -0.52355      0.06276      1.90817
     4.72472      0.26036     -0.49839      0.06383      1.91441
     4.73473      0.25263     -0.47394      0.06492      1.92076
     4.74474      0.24524     -0.45017      0.06604      1.92722
     4.75475      0.23817     -0.42707      0.06719      1.93378
     4.76476      0.23142     -0.40459      0.06836      1.94046
     4.77477      0.22495     -0.38272      0.06958      1.94726
     4.78478      0.21876     -0.36143      0.07082      1.95417
     4.79479      0.21283     -0.34069      0.07210      1.96121
     4.80480      0.20714     -0.32049      0.07341      1.96837
     4.81481      0.20169     -0.30081      0.07476      1.97566
     4.82482      0.19646     -0.28162      0.07615      1.98308
     4.83483      0.19144     -0.26291      0.07757      1.99064
     4.84484      0.18662     -0.24466      0.07904      1.99834
     4.85485      0.18199     -0.22684      0.08055      2.00618
     4.86486      0.17754     -0.20945      0.08211      2.01416
     4.87487      0.17326     -0.19247      0.08371      2.02230
     4.88488      0.16915     -0.17588      0.08536      2.03060
     4.89489      0.16520     -0.15967      0.08706      2.03906
     4.90490      0.16139     -0.14383      0.08881      2.04768
     4.91491      0.15773     -0.12834      0.09062      2.05647
     4.92492      0.15421     -0.11318      0.09248      2.06544
     4.93493      0.15082     -0.09836      0.09440      2.07459
     4.94494      0.14756     -0.08385      0.09639      2.08392
     4.95495      0.14442     -0.06964      0.09843      2.09345
     4.96496      0.14139     -0.05573      0.10055      2.10318
     4.97497      0.13848     -0.04210      0.10273      2.11311
     4.98498      0.13568     -0.02875      0.10499      2.12325
     4.99499      0.13299     -0.01566      0.10733      2.13361
    5.005       0.1304       -.2821E-2    0.1097        2.144   
      5.0150       0.1279       0.0098       0.1122       2.1550
     5.02502      0.12550      0.02212      0.11483      2.16607
     5.03503      0.12320      0.03425      0.11752      2.17737
     5.04504      0.12098      0.04615      0.12029      2.18894
     5.05505      0.11886      0.05785      0.12317      2.20077
     5.06506      0.11682      0.06934      0.12616      2.21287
     5.07507      0.11487      0.08063      0.12926      2.22526
     5.08508      0.11301      0.09173      0.13248      2.23794
    5.095095     0.111225     0.102653     0.135824     2.250936
    5.105105     0.109528     0.113400     0.139298     2.264245
    5.115115     0.107916     0.123979     0.142911     2.277882
    5.125125     0.106390     0.134397     0.146670     2.291862
    5.135135     0.104951     0.144660     0.150583     2.306196
    5.145144     0.103600     0.154775     0.154659     2.320898
    5.155155     0.102340     0.164747     0.158907     2.335984
    5.165165     0.101173     0.174583     0.163338     2.351469
    5.175175     0.100104     0.184288     0.167961     2.367367
     5.18518      0.09914      0.19387      0.17279      2.38370
     5.19519      0.09828      0.20332      0.17783      2.40047
     5.20520      0.09753      0.21267      0.18311      2.41772
     5.21522      0.09690      0.22189      0.18863      2.43545
     5.22522      0.09641      0.23101      0.19441      2.45369
     5.23523      0.09606      0.24002      0.20046      2.47246
     5.24524      0.09586      0.24892      0.20682      2.49179
     5.25526      0.09583      0.25771      0.21349      2.51169
     5.26526      0.09599      0.26638      0.22049      2.53219
     5.27527      0.09635      0.27492      0.22786      2.55333
     5.28528      0.09694      0.28333      0.23561      2.57513
     5.29530      0.09777      0.29158      0.24378      2.59763
     5.30531      0.09888      0.29963      0.25239      2.62084
    5.315315     0.100273     0.307456     0.261479     2.644818
    5.325325     0.101979     0.315001     0.271083     2.669592
    5.335335     0.103999     0.322197     0.281241     2.695202
    5.345345     0.106327     0.328964     0.291997     2.721689
    5.355355     0.108930     0.335207     0.303400     2.749099
    5.365365     0.111739     0.340827     0.315504     2.777477
    5.375375     0.114644     0.345730     0.328368     2.806875
    5.385385     0.117486     0.349851     0.342056     2.837344
    5.395395     0.120066     0.353180     0.356642     2.868941
    5.405405     0.122166     0.355783     0.372207     2.901726
    5.415415     0.123592     0.357819     0.388839     2.935760
    5.425425     0.124216     0.359524     0.406641     2.971111
    5.435435     0.124017     0.361178     0.425725     3.007849
    5.445445     0.123085     0.363043     0.446215     3.046047
    5.455455     0.121608     0.365318     0.468254     3.085781
    5.465465     0.119822     0.368104     0.492003     3.127133
    5.475475     0.117966     0.371403     0.517640     3.170187
    5.485486     0.116244     0.375130     0.545369     3.215025
    5.495495     0.114805     0.379144     0.575421     3.261734
    5.505505     0.113729     0.383272     0.608060     3.310403
    5.515515     0.113032     0.387329     0.643585     3.361113
    5.525526     0.112660     0.391139     0.682336     3.413943
    5.535535     0.112500     0.394556     0.724702     3.468959
    5.545545     0.112383     0.397483     0.771132     3.526221
    5.555555     0.112106     0.399895     0.822138     3.585758
    5.565566     0.111463     0.401853     0.878304     3.647570
    5.575575     0.110283     0.403504     0.940301     3.711608
    5.585585     0.108469     0.405059     1.008902     3.777766
    5.595595     0.106020     0.406751     1.084981     3.845843
    5.605606     0.103029     0.408785     1.169534     3.915517
     5.61562      0.09965      0.41131      1.26368      3.98630
     5.62563      0.09607      0.41438      1.36866      4.05750
     5.63564      0.09245      0.41801      1.48584      4.12811
     5.64565      0.08895      0.42214      1.61664      4.19677
     5.65566      0.08565      0.42670      1.76253      4.26165
     5.66567      0.08263      0.43160      1.92486      4.32033
     5.67568      0.07993      0.43676      2.10472      4.36970
     5.68569      0.07755      0.44210      2.30264      4.40593
     5.69570      0.07551      0.44758      2.51831      4.42449
     5.70571      0.07378      0.45313      2.75009      4.42033
     5.71572      0.07238      0.45871      2.99465      4.38836
     5.72573      0.07128      0.46431      3.24676      4.32416
     5.73574      0.07048      0.46989      3.49946      4.22492
     5.74575      0.06998      0.47543      3.74483      4.09035
     5.75576      0.06978      0.48090      3.97532      3.92311
     5.76577      0.06988      0.48629      4.18534      3.72830
     5.77578      0.07029      0.49157      4.37241      3.51193
     5.78579      0.07102      0.49670      4.53697      3.27891
     5.79580      0.07208      0.50164      4.68101      3.03135
     5.80581      0.07348      0.50635      4.80565      2.76818
     5.81582      0.07523      0.51076      4.90895      2.48638
     5.82583      0.07730      0.51477      4.98487      2.18358
     5.83584      0.07968      0.51831      5.02394      1.86086
     5.84585      0.08231      0.52126      5.01581      1.52489
     5.85586      0.08506      0.52351      4.95268      1.18807
     5.86587      0.08781      0.52498      4.83247      0.86665
     5.87588      0.09033      0.52561      4.66015      0.57719
     5.88589      0.09238      0.52544      4.44696      0.33302
     5.89590      0.09372      0.52457      4.20773      0.14188
    5.906       0.9415E-1    0.5232        3.958       0.5581E-2
     5.91592      0.09356      0.52172      3.71137     -0.07899
     5.92593      0.09194      0.52034      3.47860     -0.11811
     5.93594      0.08944      0.51939      3.26706     -0.11956
     5.94595      0.08625      0.51907      3.08130     -0.09132
     5.95596      0.08263      0.51948      2.92370     -0.04089
     5.96597      0.07881      0.52063      2.79517      0.02508
     5.97598      0.07499      0.52246      2.69572      0.10075
     5.98599      0.07130      0.52487      2.62482      0.18094
     5.99600      0.06783      0.52777      2.58168      0.26093
     6.00601      0.06465      0.53104      2.56527      0.33618
     6.01602      0.06176      0.53460      2.57427      0.40209
     6.02603      0.05917      0.53835      2.60683      0.45380
     6.03604      0.05686      0.54225      2.66025      0.48620
     6.04605      0.05483      0.54624      2.73051      0.49398
     6.05606      0.05304      0.55028      2.81181      0.47216
     6.06607      0.05149      0.55435      2.89625      0.41680
     6.07608      0.05014      0.55843      2.97390      0.32616
     6.08609      0.04899      0.56251      3.03359      0.20189
     6.09610      0.04801      0.56657      3.06440      0.04990
     6.10611      0.04721      0.57062      3.05781     -0.11968
     6.11612      0.04656      0.57463      3.00961     -0.29385
     6.12613      0.04607      0.57862      2.92097     -0.45906
     6.13614      0.04572      0.58258      2.79794     -0.60369
     6.14615      0.04553      0.58651      2.64982     -0.71989
     6.15616      0.04548      0.59040      2.48698     -0.80416
     6.16617      0.04559      0.59425      2.31900     -0.85674
     6.17618      0.04587      0.59807      2.15358     -0.88051
     6.18619      0.04631      0.60184      1.99620     -0.87970
     6.19620      0.04694      0.60555      1.85026     -0.85897
     6.20621      0.04776      0.60919      1.71753     -0.82274
     6.21622      0.04880      0.61274      1.59861     -0.77487
     6.22623      0.05007      0.61617      1.49335     -0.71855
     6.23624      0.05159      0.61946      1.40113     -0.65631
     6.24625      0.05337      0.62255      1.32116     -0.59012
     6.25626      0.05542      0.62538      1.25257     -0.52147
     6.26627      0.05774      0.62788      1.19452     -0.45148
     6.27628      0.06031      0.62996      1.14626     -0.38096
     6.28629      0.06306      0.63152      1.10716     -0.31056
     6.29630      0.06591      0.63247      1.07672     -0.24075
     6.30631      0.06872      0.63272      1.05457     -0.17193
     6.31632      0.07130      0.63222      1.04048     -0.10447
     6.32633      0.07343      0.63101      1.03434     -0.03873
     6.33634      0.07489      0.62918      1.03619      0.02483
     6.34635      0.07550      0.62695      1.04613      0.08568
     6.35636      0.07515      0.62457      1.06437      0.14313
     6.36637      0.07385      0.62234      1.09114      0.19623
     6.37638      0.07172      0.62051      1.12665      0.24379
     6.38639      0.06897      0.61928      1.17098      0.28424
     6.39640      0.06580      0.61873      1.22393      0.31565
     6.40641      0.06244      0.61887      1.28482      0.33569
     6.41642      0.05907      0.61964      1.35222      0.34173
     6.42643      0.05580      0.62097      1.42373      0.33107
     6.43644      0.05274      0.62274      1.49564      0.30133
     6.44645      0.04991      0.62486      1.56300      0.25109
     6.45646      0.04734      0.62725      1.61980      0.18062
     6.46647      0.04503      0.62983      1.65979      0.09249
      6.4765       0.0430       0.6326       1.6776      -0.0082
     6.48649      0.04114      0.63536      1.66983     -0.11432
     6.49650      0.03952      0.63823      1.63630     -0.21785
     6.50651      0.03809      0.64112      1.57967     -0.31143
     6.51652      0.03684      0.64404      1.50496     -0.38959
     6.52653      0.03574      0.64695      1.41828     -0.44933
     6.53654      0.03478      0.64986      1.32559     -0.49008
     6.54655      0.03395      0.65275      1.23193     -0.51305
     6.55656      0.03323      0.65562      1.14105     -0.52051
     6.56657      0.03262      0.65848      1.05542     -0.51517
     6.57658      0.03212      0.66131      0.97644     -0.49974
     6.58659      0.03171      0.66413      0.90470     -0.47660
     6.59660      0.03138      0.66692      0.84024     -0.44780
     6.60661      0.03115      0.66969      0.78280     -0.41497
     6.61662      0.03101      0.67245      0.73192     -0.37938
     6.62663      0.03095      0.67519      0.68707     -0.34201
     6.63664      0.03099      0.67791      0.64768     -0.30358
     6.64665      0.03111      0.68061      0.61325     -0.26461
     6.65666      0.03134      0.68330      0.58329     -0.22550
     6.66667      0.03167      0.68597      0.55739     -0.18649
     6.67668      0.03212      0.68861      0.53518     -0.14776
     6.68669      0.03268      0.69123      0.51637     -0.10945
     6.69670      0.03339      0.69382      0.50069     -0.07161
     6.70671      0.03424      0.69636      0.48797     -0.03430
    6.717       0.3526E-1    0.6988       0.4781       0.2466E-2
     6.72673      0.03647      0.70124      0.47086      0.03867
     6.73674      0.03786      0.70353      0.46634      0.07430
     6.74675      0.03947      0.70567      0.46448      0.10934
     6.75676      0.04130      0.70762      0.46534      0.14375
     6.76677      0.04336      0.70931      0.46901      0.17746
     6.77678      0.04562      0.71068      0.47560      0.21039
     6.78679      0.04804      0.71163      0.48531      0.24237
     6.79680      0.05057      0.71209      0.49833      0.27318
     6.80681      0.05309      0.71197      0.51492      0.30252
     6.81682      0.05545      0.71124      0.53533      0.32994
     6.82683      0.05747      0.70989      0.55980      0.35486
     6.83684      0.05895      0.70799      0.58853      0.37651
     6.84685      0.05974      0.70571      0.62157      0.39391
     6.85686      0.05972      0.70325      0.65879      0.40585
     6.86687      0.05887      0.70086      0.69968      0.41091
     6.87688      0.05729      0.69878      0.74326      0.40755
     6.88689      0.05511      0.69718      0.78790      0.39429
     6.89690      0.05254      0.69615      0.83119      0.36995
     6.90691      0.04976      0.69573      0.87007      0.33412
     6.91692      0.04693      0.69586      0.90103      0.28749
     6.92693      0.04416      0.69649      0.92070      0.23217
     6.93694      0.04155      0.69752      0.92650      0.17164
     6.94695      0.03913      0.69888      0.91733      0.11022
     6.95696      0.03692      0.70048      0.89385      0.05241
    6.967       0.3494E-1    0.7023       0.8583       0.1934E-2
     6.97698      0.03316      0.70419      0.81387     -0.03875
     6.98699      0.03158      0.70619      0.76409     -0.06860
     6.99700      0.03018      0.70826      0.71215     -0.08783
     7.00701      0.02894      0.71036      0.66059     -0.09746
     7.01702      0.02784      0.71248      0.61119     -0.09893
     7.02703      0.02688      0.71461      0.56505     -0.09381
     7.03704      0.02603      0.71673      0.52274     -0.08356
     7.04705      0.02529      0.71884      0.48445     -0.06946
     7.05706      0.02464      0.72095      0.45010     -0.05257
     7.06707      0.02408      0.72303      0.41949     -0.03372
     7.07708      0.02360      0.72510      0.39232     -0.01356
      7.0871       0.0232       0.7272       0.3683       0.0074
     7.09710      0.02285      0.72920      0.34706      0.02890
     7.10711      0.02257      0.73122      0.32837      0.05056
     7.11712      0.02235      0.73323      0.31195      0.07225
     7.12713      0.02219      0.73523      0.29754      0.09383
     7.13714      0.02209      0.73722      0.28496      0.11521
     7.14715      0.02204      0.73919      0.27403      0.13634
     7.15716      0.02206      0.74116      0.26460      0.15719
     7.16717      0.02214      0.74312      0.25655      0.17775
     7.17718      0.02228      0.74507      0.24977      0.19801
     7.18719      0.02249      0.74701      0.24420      0.21799
     7.19720      0.02277      0.74894      0.23977      0.23768
     7.20721      0.02313      0.75087      0.23645      0.25711
     7.21722      0.02358      0.75278      0.23422      0.27630
     7.22723      0.02413      0.75468      0.23307      0.29524
     7.23724      0.02479      0.75655      0.23302      0.31396
     7.24725      0.02556      0.75840      0.23410      0.33245
     7.25726      0.02646      0.76020      0.23637      0.35071
     7.26727      0.02751      0.76194      0.23990      0.36872
     7.27728      0.02872      0.76360      0.24477      0.38643
     7.28729      0.03011      0.76515      0.25110      0.40379
     7.29730      0.03167      0.76654      0.25901      0.42071
     7.30731      0.03342      0.76773      0.26867      0.43703
     7.31732      0.03533      0.76866      0.28022      0.45258
     7.32733      0.03740      0.76925      0.29383      0.46708
     7.33734      0.03955      0.76945      0.30966      0.48019
     7.34735      0.04170      0.76918      0.32782      0.49143
     7.35736      0.04374      0.76839      0.34836      0.50023
     7.36737      0.04551      0.76709      0.37118      0.50586
     7.37738      0.04685      0.76533      0.39597      0.50749
     7.38739      0.04762      0.76322      0.42212      0.50424
     7.39740      0.04772      0.76095      0.44866      0.49524
     7.40741      0.04713      0.75872      0.47415      0.47987
     7.41742      0.04591      0.75673      0.49679      0.45795
     7.42743      0.04417      0.75513      0.51456      0.42996
     7.43744      0.04208      0.75400      0.52556      0.39724
     7.44745      0.03979      0.75338      0.52839      0.36185
     7.45746      0.03745      0.75323      0.52254      0.32632
     7.46747      0.03515      0.75351      0.50854      0.29321
     7.47748      0.03297      0.75413      0.48774      0.26458
     7.48749      0.03095      0.75504      0.46206      0.24174
     7.49750      0.02910      0.75617      0.43351      0.22518
     7.50751      0.02743      0.75746      0.40388      0.21472
     7.51752      0.02594      0.75886      0.37459      0.20971
     7.52753      0.02462      0.76034      0.34661      0.20931
     7.53754      0.02344      0.76188      0.32053      0.21262
     7.54755      0.02240      0.76344      0.29666      0.21879
     7.55756      0.02148      0.76503      0.27506      0.22712
     7.56757      0.02067      0.76663      0.25570      0.23700
     7.57758      0.01996      0.76822      0.23843      0.24797
     7.58759      0.01933      0.76981      0.22310      0.25967
     7.59760      0.01878      0.77139      0.20951      0.27183
     7.60761      0.01830      0.77296      0.19750      0.28424
     7.61762      0.01788      0.77451      0.18688      0.29676
     7.62763      0.01752      0.77606      0.17751      0.30928
     7.63764      0.01722      0.77759      0.16926      0.32174
     7.64765      0.01696      0.77911      0.16200      0.33409
     7.65766      0.01675      0.78062      0.15564      0.34629
     7.66767      0.01658      0.78211      0.15007      0.35832
     7.67768      0.01646      0.78360      0.14525      0.37019
     7.68769      0.01638      0.78508      0.14109      0.38188
     7.69770      0.01634      0.78656      0.13755      0.39341
     7.70771      0.01634      0.78802      0.13460      0.40478
     7.71772      0.01638      0.78949      0.13220      0.41600
     7.72773      0.01648      0.79095      0.13032      0.42708
     7.73774      0.01661      0.79240      0.12897      0.43804
     7.74775      0.01680      0.79385      0.12812      0.44888
     7.75776      0.01705      0.79530      0.12780      0.45961
     7.76777      0.01735      0.79675      0.12799      0.47025
     7.77778      0.01772      0.79819      0.12873      0.48081
     7.78779      0.01817      0.79962      0.13005      0.49127
     7.79780      0.01869      0.80104      0.13197      0.50164
     7.80781      0.01931      0.80244      0.13455      0.51192
     7.81782      0.02002      0.80381      0.13784      0.52207
     7.82783      0.02085      0.80515      0.14192      0.53207
     7.83784      0.02180      0.80644      0.14686      0.54186
     7.84785      0.02289      0.80764      0.15275      0.55138
     7.85786      0.02413      0.80875      0.15969      0.56051
     7.86787      0.02551      0.80971      0.16778      0.56913
     7.87788      0.02705      0.81049      0.17713      0.57702
     7.88789      0.02871      0.81103      0.18781      0.58396
     7.89790      0.03049      0.81128      0.19988      0.58961
     7.90791      0.03231      0.81117      0.21332      0.59357
     7.91792      0.03410      0.81066      0.22800      0.59537
     7.92793      0.03575      0.80972      0.24363      0.59448
     7.93794      0.03712      0.80836      0.25973      0.59039
     7.94795      0.03809      0.80664      0.27556      0.58263
     7.95796      0.03854      0.80470      0.29011      0.57098
     7.96797      0.03842      0.80268      0.30221      0.55557
     7.97798      0.03773      0.80077      0.31067      0.53697
     7.98799      0.03655      0.79911      0.31452      0.51627
     7.99800      0.03499      0.79780      0.31322      0.49491
     8.00801      0.03318      0.79691      0.30686      0.47442
     8.01802      0.03126      0.79644      0.29606      0.45618
     8.02803      0.02933      0.79635      0.28187      0.44117
     8.03804      0.02746      0.79659      0.26549      0.42985
     8.04805      0.02570      0.79710      0.24806      0.42227
     8.05806      0.02408      0.79783      0.23053      0.41812
     8.06807      0.02261      0.79871      0.21358      0.41693
     8.07808      0.02129      0.79972      0.19763      0.41818
     8.08809      0.02011      0.80081      0.18294      0.42133
     8.09810      0.01907      0.80197      0.16960      0.42593
     8.10811      0.01814      0.80316      0.15759      0.43160
     8.11812      0.01732      0.80437      0.14687      0.43802
     8.12813      0.01659      0.80559      0.13733      0.44496
     8.13814      0.01596      0.80682      0.12886      0.45223
     8.14815      0.01539      0.80805      0.12137      0.45971
     8.15816      0.01490      0.80927      0.11473      0.46728
     8.16817      0.01447      0.81049      0.10887      0.47488
     8.17818      0.01409      0.81170      0.10369      0.48246
     8.18819      0.01376      0.81289      0.09912      0.48998
     8.19820      0.01347      0.81408      0.09510      0.49743
     8.20821      0.01323      0.81526      0.09156      0.50478
     8.21822      0.01302      0.81642      0.08846      0.51203
     8.22823      0.01285      0.81758      0.08576      0.51918
     8.23824      0.01272      0.81873      0.08342      0.52623
     8.24825      0.01262      0.81987      0.08142      0.53318
     8.25826      0.01255      0.82101      0.07974      0.54004
     8.26827      0.01251      0.82214      0.07835      0.54682
     8.27828      0.01250      0.82327      0.07725      0.55351
     8.28829      0.01252      0.82439      0.07642      0.56014
     8.29830      0.01258      0.82552      0.07587      0.56671
     8.30831      0.01268      0.82664      0.07559      0.57322
     8.31832      0.01281      0.82776      0.07558      0.57968
     8.32833      0.01298      0.82887      0.07585      0.58610
     8.33834      0.01319      0.82999      0.07642      0.59248
     8.34835      0.01345      0.83111      0.07731      0.59883
     8.35836      0.01376      0.83222      0.07853      0.60514
     8.36837      0.01413      0.83333      0.08011      0.61141
     8.37838      0.01457      0.83443      0.08209      0.61763
     8.38839      0.01507      0.83552      0.08450      0.62379
     8.39840      0.01566      0.83659      0.08740      0.62986
     8.40841      0.01634      0.83764      0.09083      0.63580
     8.41842      0.01712      0.83864      0.09486      0.64157
     8.42843      0.01801      0.83959      0.09954      0.64709
     8.43844      0.01901      0.84047      0.10495      0.65227
     8.44845      0.02014      0.84124      0.11114      0.65698
     8.45846      0.02140      0.84186      0.11817      0.66104
     8.46847      0.02277      0.84231      0.12604      0.66425
     8.47848      0.02424      0.84252      0.13475      0.66634
     8.48849      0.02577      0.84245      0.14418      0.66700
     8.49850      0.02730      0.84206      0.15412      0.66591
     8.50851      0.02873      0.84131      0.16423      0.66273
     8.51852      0.02998      0.84021      0.17400      0.65724
     8.52853      0.03091      0.83879      0.18276      0.64932
     8.53854      0.03144      0.83715      0.18978      0.63915
     8.54855      0.03150      0.83540      0.19434      0.62718
     8.55856      0.03108      0.83369      0.19589      0.61414
     8.56857      0.03022      0.83215      0.19422      0.60097
     8.57858      0.02901      0.83089      0.18947      0.58862
     8.58859      0.02756      0.82997      0.18213      0.57788
     8.59860      0.02599      0.82940      0.17290      0.56926
     8.60861      0.02437      0.82917      0.16251      0.56298
     8.61862      0.02279      0.82922      0.15166      0.55899
     8.62863      0.02130      0.82952      0.14087      0.55705
     8.63864      0.01991      0.83001      0.13053      0.55687
     8.64865      0.01865      0.83065      0.12088      0.55811
     8.65866      0.01751      0.83141      0.11202      0.56045
     8.66867      0.01650      0.83224      0.10400      0.56362
     8.67868      0.01559      0.83313      0.09680      0.56739
     8.68869      0.01479      0.83406      0.09038      0.57158
     8.69870      0.01408      0.83501      0.08467      0.57607
     8.70871      0.01345      0.83597      0.07961      0.58074
     8.71872      0.01290      0.83694      0.07513      0.58551
     8.72873      0.01242      0.83791      0.07116      0.59034
     8.73874      0.01199      0.83887      0.06766      0.59517
     8.74875      0.01161      0.83984      0.06456      0.59998
     8.75876      0.01128      0.84079      0.06182      0.60476
     8.76877      0.01099      0.84174      0.05940      0.60948
     8.77878      0.01074      0.84267      0.05728      0.61414
     8.78879      0.01053      0.84360      0.05541      0.61875
     8.79880      0.01034      0.84453      0.05378      0.62329
     8.80881      0.01019      0.84544      0.05237      0.62777
     8.81882      0.01006      0.84635      0.05116      0.63219
      8.8288       0.0100       0.8473       0.0501       0.6366
      8.8388       0.0099       0.8481       0.0493       0.6409
      8.8488       0.0098       0.8490       0.0486       0.6451
      8.8589       0.0098       0.8499       0.0481       0.6494
      8.8689       0.0098       0.8508       0.0477       0.6535
      8.8789       0.0098       0.8517       0.0475       0.6577
      8.8889       0.0099       0.8526       0.0474       0.6618
      8.8989       0.0100       0.8535       0.0475       0.6659
     8.90891      0.01008      0.85434      0.04778      0.67002
     8.91892      0.01022      0.85523      0.04822      0.67409
     8.92893      0.01039      0.85611      0.04885      0.67814
     8.93894      0.01061      0.85699      0.04968      0.68218
     8.94895      0.01086      0.85787      0.05073      0.68621
     8.95896      0.01115      0.85875      0.05202      0.69021
     8.96897      0.01150      0.85963      0.05358      0.69418
     8.97898      0.01191      0.86050      0.05543      0.69810
     8.98899      0.01237      0.86136      0.05761      0.70196
     8.99900      0.01291      0.86220      0.06015      0.70573
     9.00901      0.01353      0.86301      0.06310      0.70936
     9.01902      0.01424      0.86378      0.06649      0.71280
     9.02903      0.01504      0.86450      0.07038      0.71596
     9.03904      0.01595      0.86515      0.07479      0.71876
     9.04905      0.01696      0.86569      0.07975      0.72106
     9.05906      0.01807      0.86610      0.08525      0.72271
     9.06907      0.01927      0.86633      0.09124      0.72351
     9.07908      0.02054      0.86636      0.09762      0.72325
     9.08909      0.02184      0.86612      0.10419      0.72171
     9.09910      0.02310      0.86560      0.11067      0.71873
     9.10911      0.02424      0.86478      0.11665      0.71420
     9.11912      0.02517      0.86367      0.12166      0.70815
     9.12913      0.02580      0.86233      0.12524      0.70081
     9.13914      0.02605      0.86085      0.12697      0.69261
     9.14915      0.02590      0.85934      0.12664      0.68411
     9.15916      0.02536      0.85792      0.12426      0.67593
     9.16917      0.02449      0.85670      0.12007      0.66865
     9.17918      0.02336      0.85575      0.11449      0.66264
     9.18919      0.02209      0.85508      0.10801      0.65812
     9.19920      0.02074      0.85471      0.10107      0.65511
     9.20921      0.01940      0.85460      0.09407      0.65349
     9.21922      0.01811      0.85472      0.08729      0.65308
     9.22923      0.01690      0.85502      0.08091      0.65366
     9.23924      0.01579      0.85546      0.07501      0.65502
     9.24925      0.01479      0.85601      0.06966      0.65698
     9.25926      0.01389      0.85664      0.06484      0.65937
     9.26927      0.01309      0.85733      0.06054      0.66208
     9.27928      0.01237      0.85806      0.05671      0.66500
     9.28929      0.01174      0.85881      0.05331      0.66806
     9.29930      0.01119      0.85958      0.05029      0.67121
     9.30931      0.01069      0.86036      0.04763      0.67441
     9.31932      0.01026      0.86114      0.04527      0.67761
      9.3293       0.0099       0.8619       0.0432       0.6808
      9.3393       0.0095       0.8627       0.0413       0.6840
    9.349       0.9249E-2    0.8635       0.3972E-1    0.6871   
    9.359       0.8991E-2    0.8642       0.3828E-1    0.6903   
    9.369       0.8766E-2    0.8650       0.3702E-1    0.6933   
    9.379       0.8571E-2    0.8657       0.3591E-1    0.6964   
    9.389       0.8403E-2    0.8665       0.3495E-1    0.6994   
    9.399       0.8261E-2    0.8672       0.3411E-1    0.7023   
    9.409       0.8142E-2    0.8679       0.3340E-1    0.7053   
    9.419       0.8045E-2    0.8687       0.3279E-1    0.7081   
    9.429       0.7969E-2    0.8694       0.3230E-1    0.7110   
    9.439       0.7914E-2    0.8701       0.3190E-1    0.7138   
    9.449       0.7878E-2    0.8708       0.3160E-1    0.7166   
    9.459       0.7863E-2    0.8715       0.3140E-1    0.7194   
    9.469       0.7867E-2    0.8722       0.3129E-1    0.7222   
    9.479       0.7892E-2    0.8730       0.3129E-1    0.7249   
    9.489       0.7938E-2    0.8737       0.3138E-1    0.7277   
    9.499       0.8005E-2    0.8744       0.3157E-1    0.7304   
    9.510       0.8097E-2    0.8751       0.3188E-1    0.7331   
    9.520       0.8213E-2    0.8758       0.3230E-1    0.7358   
    9.530       0.8357E-2    0.8765       0.3284E-1    0.7385   
    9.540       0.8530E-2    0.8772       0.3352E-1    0.7413   
    9.550       0.8737E-2    0.8779       0.3436E-1    0.7439   
    9.560       0.8980E-2    0.8786       0.3535E-1    0.7466   
    9.570       0.9264E-2    0.8793       0.3653E-1    0.7493   
      9.5796       0.0096       0.8800       0.0379       0.7519
      9.5896       0.0100       0.8807       0.0395       0.7545
     9.59960      0.01041      0.88142      0.04141      0.75698
     9.60961      0.01092      0.88208      0.04357      0.75937
     9.61962      0.01149      0.88272      0.04604      0.76161
     9.62963      0.01215      0.88331      0.04885      0.76364
     9.63964      0.01288      0.88385      0.05202      0.76539
     9.64965      0.01371      0.88431      0.05555      0.76675
     9.65966      0.01462      0.88466      0.05944      0.76761
     9.66967      0.01562      0.88489      0.06362      0.76783
     9.67968      0.01668      0.88494      0.06800      0.76727
     9.68969      0.01777      0.88479      0.07242      0.76580
     9.69970      0.01885      0.88441      0.07664      0.76331
     9.70971      0.01986      0.88377      0.08037      0.75978
     9.71972      0.02071      0.88289      0.08329      0.75530
     9.72973      0.02133      0.88179      0.08509      0.75009
     9.73974      0.02166      0.88055      0.08556      0.74449
     9.74975      0.02165      0.87925      0.08463      0.73891
     9.75976      0.02130      0.87799      0.08240      0.73374
     9.76977      0.02066      0.87688      0.07909      0.72933
     9.77978      0.01977      0.87597      0.07501      0.72586
     9.78979      0.01873      0.87530      0.07049      0.72341
     9.79980      0.01761      0.87489      0.06581      0.72194
     9.80981      0.01648      0.87470      0.06118      0.72135
     9.81982      0.01538      0.87472      0.05678      0.72149
     9.82983      0.01433      0.87490      0.05267      0.72222
     9.83984      0.01337      0.87521      0.04892      0.72341
     9.84985      0.01250      0.87563      0.04553      0.72494
     9.85986      0.01172      0.87612      0.04249      0.72672
     9.86987      0.01101      0.87666      0.03978      0.72868
     9.87988      0.01039      0.87724      0.03737      0.73075
    9.890       0.9839E-2    0.8779       0.3524E-1    0.7329   
    9.900       0.9352E-2    0.8785       0.3335E-1    0.7351   
    9.910       0.8921E-2    0.8791       0.3168E-1    0.7373   
    9.920       0.8541E-2    0.8797       0.3020E-1    0.7395   
    9.930       0.8207E-2    0.8804       0.2889E-1    0.7417   
    9.940       0.7912E-2    0.8810       0.2774E-1    0.7439   
    9.950       0.7653E-2    0.8816       0.2672E-1    0.7461   
    9.960       0.7426E-2    0.8823       0.2582E-1    0.7482   
    9.970       0.7228E-2    0.8829       0.2503E-1    0.7503   
    9.980       0.7055E-2    0.8835       0.2434E-1    0.7524   
    9.990       0.6906E-2    0.8841       0.2374E-1    0.7545   
    10.00       0.6779E-2    0.8847       0.2322E-1    0.7565   
# 
# 11/06/2019 at 14:10 YAMBO @ dufour [start]
# 11/06/2019 at 14:10                [end]
#  
# Timing   [Min/Max/Average]: 48s/48s/48s
#
# .-Input file : Outputs/00_bse_plus_rim_00_bse_plus_rim.in
# | optics                         # [R OPT] Optics
# | bse                            # [R BSE] Bethe Salpeter Equation.
# | bsk                            # [R BSK] Bethe Salpeter Equation kernel
# | bss                            # [R BSS] Bethe Salpeter Equation solver
# | em1s                           # [R Xs] Static Inverse Dielectric Matrix
# | rim_cut                        # [R RIM CUT] Coulomb potential
# | BoseTemp= 0.000000     eV      # Bosonic Temperature
# | X_Threads= 1                   # [OPENMP/X] Number of threads for response functions
# | DIP_Threads= 1                 # [OPENMP/X] Number of threads for dipoles
# | K_Threads= 1                   # [OPENMP/BSK] Number of threads for response functions
# | RandQpts= 1000000              # [RIM] Number of random q-points in the BZ
# | RandGvec= 1            RL      # [RIM] Coulomb interaction RS components
# | CUTGeo= "none"                 # [CUT] Coulomb Cutoff geometry: box/cylinder/sphere/ws X/Y/Z/XY..
# | % CUTBox
# |  0.00     | 0.00     | 0.00     |        # [CUT] [au] Box sides
# | %
# | CUTRadius= 0.000000            # [CUT] [au] Sphere/Cylinder radius
# | CUTCylLen= 0.000000            # [CUT] [au] Cylinder length
# | CUTwsGvec= 0.000000            # [CUT] WS cutoff: number of G to be modified
# | Chimod= "HARTREE"              # [X] IP/Hartree/ALDA/LRC/PF/BSfxc
# | BSEmod= "retarded"             # [BSE] resonant/retarded/coupling
# | BSKmod= "SEX"                  # [BSE] IP/Hartree/HF/ALDA/SEX
# | BSSmod= "d"                    # [BSS] (h)aydock/(d)iagonalization/(i)nversion/(t)ddft`
# | BSENGexx=  4559        RL      # [BSK] Exchange components
# | BSENGBlk= 111          RL      # [BSK] Screened interaction block size
# | #WehCpl                        # [BSK] eh interaction included also in coupling
# | % KfnQP_E
# |  3.500000 | 1.000000 | 1.000000 |        # [EXTQP BSK BSS] E parameters  (c/v) eV|adim|adim
# | %
# | % BEnRange
# |   0.00000 | 10.00000 | eV      # [BSS] Energy range
# | %
# | % BDmRange
# |   0.10000 |  0.10000 | eV      # [BSS] Damping range
# | %
# | BEnSteps= 1000                 # [BSS] Energy steps
# | % BLongDir
# | 0.1000E-4 | 0.000    | 0.000    |        # [BSS] [cc] Electric Field
# | %
# | % BSEBands
# |  1 | 2 |                       # [BSK] Bands range
# | %
# | WRbsWF                         # [BSS] Write to disk excitonic the WFs
# | % BndsRnXs
# |   1 | 20 |                     # [Xs] Polarization function bands
# | %
# | NGsBlkXs= 111          RL      # [Xs] Response block size
# | % DmRngeXs
# |   0.10000 |  0.10000 | eV      # [Xs] Damping range
# | %
# | % LongDrXs
# | 0.1000E-4 | 0.000    | 0.000    |        # [Xs] [cc] Electric Field
# | %
