#                                                           
#  ____  ____     _       ____    ____  ______      ___     
# |_  _||_  _|   / \     |_   \  /   _||_   _ \   ."   `.   
#   \ \  / /    / _ \      |   \/   |    | |_) | /  .-.  \  
#    \ \/ /    / ___ \     | |\  /| |    |  __". | |   | |  
#    _|  |_  _/ /   \ \_  _| |_\/_| |_  _| |__) |\  `-"  /  
#   |______||____| |____||_____||_____||_______/  `.___."   
#                                                           
#                                                           
#                                                           
# GPL Version 4.4.0 Revision 148. (Based on r.16920 h.961a8d
#                   MPI+SLK+OpenMP Build                    
#                http://www.yambo-code.org                  
#
# Absorption @ Q(1) [q->0 direction] :0.1000E-4  0.000     0.000   
#
#
# - Energies      are  Analyt. E
# - Wavefunctions are +AMGB (for 2D systems)(C)
#
# - The Green`s function is Retarded -
# - Using the Length Gauge -
# - [r,Vnl] *is* included -
#
#
#    E/ev[1]      EPS-Im[2]    EPS-Re[3]    EPSo-Im[4]   EPSo-Re[5]
#
     0.00000      0.00000      0.01566      0.00000      1.35841
   0.1001E-1    -.3994E-3    0.1564E-1    0.1905E-4     1.358   
   0.2002E-1    -.7990E-3    0.1558E-1    0.3810E-4     1.358   
   0.3003E-1    -.1199E-2    0.1548E-1    0.5715E-4     1.358   
   0.4004E-1    -.1599E-2    0.1534E-1    0.7621E-4     1.358   
   0.5005E-1    -.1999E-2    0.1516E-1    0.9526E-4     1.358   
   0.6006E-1    -.2400E-2    0.1494E-1    0.1143E-3     1.358   
   0.7007E-1    -.2801E-2    0.1468E-1    0.1334E-3     1.358   
   0.8008E-1    -.3203E-2    0.1438E-1    0.1525E-3     1.358   
   0.9009E-1    -.3605E-2    0.1405E-1    0.1715E-3     1.358   
   0.1001       -.4009E-2    0.1367E-1    0.1906E-3     1.359   
   0.1101       -.4413E-2    0.1325E-1    0.2097E-3     1.359   
   0.1201       -.4818E-2    0.1279E-1    0.2288E-3     1.359   
   0.1301       -.5225E-2    0.1229E-1    0.2479E-3     1.359   
   0.1401       -.5632E-2    0.1175E-1    0.2670E-3     1.359   
   0.1502       -.6041E-2    0.1117E-1    0.2861E-3     1.359   
   0.1602       -.6450E-2    0.1055E-1    0.3052E-3     1.359   
   0.1702       -.6862E-2    0.9890E-2    0.3244E-3     1.359   
   0.1802       -.7275E-2    0.9188E-2    0.3435E-3     1.359   
   0.1902       -.7689E-2    0.8444E-2    0.3627E-3     1.359   
   0.2002       -.8105E-2    0.7659E-2    0.3818E-3     1.359   
   0.2102       -.8523E-2    0.6833E-2    0.4010E-3     1.359   
   0.2202       -.8942E-2    0.5965E-2    0.4202E-3     1.359   
   0.2302       -.9364E-2    0.5055E-2    0.4394E-3     1.359   
   0.2402       -.9788E-2    0.4104E-2    0.4587E-3     1.359   
   0.2503       -.1021E-1    0.3110E-2    0.4779E-3     1.359   
   0.2603       -.1064E-1    0.2074E-2    0.4971E-3     1.359   
   0.2703       -.1107E-1    0.9950E-3    0.5164E-3     1.359   
   0.2803       -.1150E-1    -.1271E-3    0.5357E-3     1.359   
   0.2903       -.1194E-1    -.1292E-2    0.5550E-3     1.359   
   0.3003       -.1238E-1    -.2500E-2    0.5743E-3     1.359   
   0.3103       -.1282E-1    -.3753E-2    0.5937E-3     1.359   
   0.3203       -.1326E-1    -.5049E-2    0.6130E-3     1.359   
   0.3303       -.1371E-1    -.6389E-2    0.6324E-3     1.359   
   0.3403       -.1415E-1    -.7773E-2    0.6518E-3     1.360   
   0.3504       -.1461E-1    -.9203E-2    0.6712E-3     1.360   
   0.3604       -.1506E-1    -.1068E-1    0.6907E-3     1.360   
   0.3704       -.1552E-1    -.1220E-1    0.7102E-3     1.360   
   0.3804       -.1598E-1    -.1376E-1    0.7297E-3     1.360   
   0.3904       -.1644E-1    -.1537E-1    0.7492E-3     1.360   
   0.4004       -.1691E-1    -.1703E-1    0.7687E-3     1.360   
   0.4104       -.1738E-1    -.1874E-1    0.7883E-3     1.360   
   0.4204       -.1786E-1    -.2049E-1    0.8079E-3     1.360   
   0.4304       -.1833E-1    -.2229E-1    0.8275E-3     1.360   
   0.4404       -.1881E-1    -.2414E-1    0.8472E-3     1.360   
   0.4505       -.1930E-1    -.2603E-1    0.8668E-3     1.360   
   0.4605       -.1979E-1    -.2798E-1    0.8865E-3     1.360   
   0.4705       -.2028E-1    -.2997E-1    0.9063E-3     1.361   
   0.4805       -.2078E-1    -.3201E-1    0.9260E-3     1.361   
   0.4905       -.2128E-1    -.3411E-1    0.9458E-3     1.361   
   0.5005       -.2178E-1    -.3625E-1    0.9657E-3     1.361   
   0.5105       -.2229E-1    -.3844E-1    0.9855E-3     1.361   
   0.5205       -.2280E-1    -.4069E-1    0.1005E-2     1.361   
   0.5305       -.2331E-1    -.4298E-1    0.1025E-2     1.361   
   0.5405       -.2383E-1    -.4533E-1    0.1045E-2     1.361   
   0.5506       -.2434E-1    -.4773E-1    0.1065E-2     1.361   
   0.5606       -.2487E-1    -.5018E-1    0.1085E-2     1.361   
   0.5706       -.2539E-1    -.5269E-1    0.1105E-2     1.362   
   0.5806       -.2592E-1    -.5525E-1    0.1126E-2     1.362   
   0.5906       -.2645E-1    -.5786E-1    0.1146E-2     1.362   
   0.6006       -.2698E-1    -.6053E-1    0.1166E-2     1.362   
   0.6106       -.2750E-1    -.6325E-1    0.1186E-2     1.362   
   0.6206       -.2803E-1    -.6603E-1    0.1206E-2     1.362   
   0.6306       -.2856E-1    -.6887E-1    0.1227E-2     1.362   
   0.6406       -.2909E-1    -.7176E-1    0.1247E-2     1.362   
   0.6507       -.2962E-1    -.7471E-1    0.1267E-2     1.362   
   0.6607       -.3014E-1    -.7772E-1    0.1288E-2     1.363   
   0.6707       -.3066E-1    -.8079E-1    0.1308E-2     1.363   
   0.6807       -.3117E-1    -.8391E-1    0.1329E-2     1.363   
   0.6907       -.3167E-1    -.8710E-1    0.1349E-2     1.363   
      0.7007      -0.0322      -0.0903       0.0014       1.3631
      0.7107      -0.0326      -0.0937       0.0014       1.3633
      0.7207      -0.0331      -0.0970       0.0014       1.3634
      0.7307      -0.0336      -0.1005       0.0014       1.3636
      0.7407      -0.0340      -0.1040       0.0015       1.3637
      0.7508      -0.0344      -0.1075       0.0015       1.3639
      0.7608      -0.0348      -0.1112       0.0015       1.3640
      0.7708      -0.0351      -0.1149       0.0015       1.3642
      0.7808      -0.0354      -0.1187       0.0015       1.3643
      0.7908      -0.0356      -0.1226       0.0016       1.3645
      0.8008      -0.0358      -0.1266       0.0016       1.3646
      0.8108      -0.0359      -0.1307       0.0016       1.3648
      0.8208      -0.0359      -0.1349       0.0016       1.3649
      0.8308      -0.0358      -0.1392       0.0016       1.3651
      0.8408      -0.0356      -0.1437       0.0017       1.3653
      0.8509      -0.0353      -0.1484       0.0017       1.3654
      0.8609      -0.0350      -0.1534       0.0017       1.3656
      0.8709      -0.0345      -0.1586       0.0017       1.3658
      0.8809      -0.0339      -0.1642       0.0017       1.3659
      0.8909      -0.0333      -0.1701       0.0018       1.3661
      0.9009      -0.0328      -0.1765       0.0018       1.3663
      0.9109      -0.0323      -0.1833       0.0018       1.3665
      0.9209      -0.0321      -0.1906       0.0018       1.3667
      0.9309      -0.0323      -0.1983       0.0019       1.3669
      0.9409      -0.0329      -0.2064       0.0019       1.3670
      0.9510      -0.0340      -0.2146       0.0019       1.3672
      0.9610      -0.0356      -0.2230       0.0019       1.3674
      0.9710      -0.0377      -0.2312       0.0019       1.3676
      0.9810      -0.0402      -0.2393       0.0020       1.3678
      0.9910      -0.0429      -0.2472       0.0020       1.3680
      1.0010      -0.0458      -0.2548       0.0020       1.3682
      1.0110      -0.0488      -0.2622       0.0020       1.3684
      1.0210      -0.0517      -0.2694       0.0021       1.3686
      1.0310      -0.0547      -0.2766       0.0021       1.3688
      1.0410      -0.0575      -0.2836       0.0021       1.3690
      1.0511      -0.0603      -0.2907       0.0021       1.3692
      1.0611      -0.0629      -0.2978       0.0021       1.3695
      1.0711      -0.0655      -0.3050       0.0022       1.3697
      1.0811      -0.0680      -0.3122       0.0022       1.3699
      1.0911      -0.0704      -0.3196       0.0022       1.3701
      1.1011      -0.0728      -0.3271       0.0022       1.3703
      1.1111      -0.0752      -0.3348       0.0023       1.3706
      1.1211      -0.0775      -0.3426       0.0023       1.3708
      1.1311      -0.0799      -0.3506       0.0023       1.3710
      1.1411      -0.0822      -0.3588       0.0023       1.3712
      1.1512      -0.0845      -0.3672       0.0024       1.3715
      1.1612      -0.0868      -0.3757       0.0024       1.3717
      1.1712      -0.0892      -0.3845       0.0024       1.3720
      1.1812      -0.0915      -0.3935       0.0024       1.3722
      1.1912      -0.0939      -0.4027       0.0025       1.3724
      1.2012      -0.0964      -0.4121       0.0025       1.3727
      1.2112      -0.0989      -0.4217       0.0025       1.3729
      1.2212      -0.1014      -0.4316       0.0025       1.3732
      1.2312      -0.1040      -0.4417       0.0025       1.3734
      1.2412      -0.1066      -0.4521       0.0026       1.3737
      1.2513      -0.1093      -0.4626       0.0026       1.3740
      1.2613      -0.1121      -0.4735       0.0026       1.3742
      1.2713      -0.1149      -0.4846       0.0026       1.3745
      1.2813      -0.1178      -0.4960       0.0027       1.3747
      1.2913      -0.1208      -0.5077       0.0027       1.3750
      1.3013      -0.1239      -0.5196       0.0027       1.3753
      1.3113      -0.1270      -0.5319       0.0027       1.3756
      1.3213      -0.1303      -0.5444       0.0028       1.3758
      1.3313      -0.1337      -0.5573       0.0028       1.3761
      1.3413      -0.1371      -0.5705       0.0028       1.3764
      1.3514      -0.1407      -0.5840       0.0028       1.3767
      1.3614      -0.1444      -0.5978       0.0029       1.3770
      1.3714      -0.1482      -0.6121       0.0029       1.3773
      1.3814      -0.1522      -0.6266       0.0029       1.3775
      1.3914      -0.1563      -0.6416       0.0030       1.3778
      1.4014      -0.1605      -0.6569       0.0030       1.3781
      1.4114      -0.1649      -0.6727       0.0030       1.3784
      1.4214      -0.1694      -0.6889       0.0030       1.3787
      1.4314      -0.1741      -0.7055       0.0031       1.3790
      1.4414      -0.1790      -0.7225       0.0031       1.3793
      1.4515      -0.1841      -0.7400       0.0031       1.3797
      1.4615      -0.1894      -0.7580       0.0031       1.3800
      1.4715      -0.1949      -0.7765       0.0032       1.3803
      1.4815      -0.2006      -0.7956       0.0032       1.3806
      1.4915      -0.2065      -0.8151       0.0032       1.3809
      1.5015      -0.2127      -0.8352       0.0032       1.3812
      1.5115      -0.2192      -0.8559       0.0033       1.3816
      1.5215      -0.2259      -0.8772       0.0033       1.3819
      1.5315      -0.2329      -0.8991       0.0033       1.3822
      1.5415      -0.2402      -0.9217       0.0034       1.3826
      1.5516      -0.2479      -0.9450       0.0034       1.3829
      1.5616      -0.2559      -0.9690       0.0034       1.3832
      1.5716      -0.2642      -0.9937       0.0034       1.3836
      1.5816      -0.2730      -1.0192       0.0035       1.3839
      1.5916      -0.2822      -1.0455       0.0035       1.3843
      1.6016      -0.2918      -1.0726       0.0035       1.3846
      1.6116      -0.3019      -1.1006       0.0036       1.3850
      1.6216      -0.3125      -1.1296       0.0036       1.3853
      1.6316      -0.3236      -1.1594       0.0036       1.3857
      1.6416      -0.3354      -1.1903       0.0036       1.3861
      1.6517      -0.3477      -1.2223       0.0037       1.3864
      1.6617      -0.3607      -1.2554       0.0037       1.3868
      1.6717      -0.3744      -1.2896       0.0037       1.3872
      1.6817      -0.3889      -1.3250       0.0038       1.3875
      1.6917      -0.4042      -1.3617       0.0038       1.3879
      1.7017      -0.4204      -1.3998       0.0038       1.3883
      1.7117      -0.4375      -1.4392       0.0038       1.3887
      1.7217      -0.4557      -1.4802       0.0039       1.3891
      1.7317      -0.4750      -1.5227       0.0039       1.3895
      1.7417      -0.4955      -1.5668       0.0039       1.3898
      1.7518      -0.5172      -1.6126       0.0040       1.3902
      1.7618      -0.5404      -1.6603       0.0040       1.3906
      1.7718      -0.5652      -1.7099       0.0040       1.3910
      1.7818      -0.5916      -1.7616       0.0041       1.3914
      1.7918      -0.6198      -1.8153       0.0041       1.3919
      1.8018      -0.6500      -1.8713       0.0041       1.3923
      1.8118      -0.6824      -1.9297       0.0042       1.3927
      1.8218      -0.7172      -1.9906       0.0042       1.3931
      1.8318      -0.7546      -2.0542       0.0042       1.3935
      1.8418      -0.7949      -2.1206       0.0043       1.3939
      1.8519      -0.8384      -2.1900       0.0043       1.3944
      1.8619      -0.8854      -2.2624       0.0043       1.3948
      1.8719      -0.9363      -2.3382       0.0044       1.3952
      1.8819      -0.9915      -2.4175       0.0044       1.3957
      1.8919      -1.0515      -2.5004       0.0044       1.3961
      1.9019      -1.1168      -2.5872       0.0045       1.3966
      1.9119      -1.1882      -2.6780       0.0045       1.3970
      1.9219      -1.2662      -2.7731       0.0045       1.3975
      1.9319      -1.3517      -2.8725       0.0046       1.3979
      1.9419      -1.4457      -2.9765       0.0046       1.3984
      1.9520      -1.5492      -3.0851       0.0046       1.3988
      1.9620      -1.6635      -3.1984       0.0047       1.3993
      1.9720      -1.7900      -3.3164       0.0047       1.3998
      1.9820      -1.9303      -3.4390       0.0047       1.4002
      1.9920      -2.0863      -3.5660       0.0048       1.4007
      2.0020      -2.2603      -3.6969       0.0048       1.4012
      2.0120      -2.4546      -3.8310       0.0048       1.4017
      2.0220      -2.6723      -3.9672       0.0049       1.4022
      2.0320      -2.9165      -4.1039       0.0049       1.4026
      2.0420      -3.1909      -4.2389       0.0050       1.4031
      2.0521      -3.4995      -4.3691       0.0050       1.4036
      2.0621      -3.8468      -4.4901       0.0050       1.4041
      2.0721      -4.2374      -4.5962       0.0051       1.4046
      2.0821      -4.6758      -4.6795       0.0051       1.4051
    2.092       -5.166       -4.730       0.5138E-2     1.406   
    2.102       -5.710       -4.735       0.5176E-2     1.406   
    2.112       -6.309       -4.677       0.5215E-2     1.407   
    2.122       -6.959       -4.538       0.5253E-2     1.407   
    2.132       -7.649       -4.296       0.5292E-2     1.408   
    2.142       -8.361       -3.928       0.5331E-2     1.408   
    2.152       -9.067       -3.415       0.5371E-2     1.409   
    2.162       -9.727       -2.744       0.5411E-2     1.409   
    2.172       -10.29       -1.916       0.5450E-2     1.410   
    2.182       -10.72       -.9519       0.5491E-2     1.410   
    2.192       -10.95       0.1083       0.5531E-2     1.411   
    2.202       -10.98        1.207       0.5572E-2     1.412   
    2.212       -10.78        2.280       0.5613E-2     1.412   
    2.222       -10.39        3.268       0.5654E-2     1.413   
    2.232       -9.852        4.126       0.5696E-2     1.413   
    2.242       -9.207        4.830       0.5738E-2     1.414   
    2.252       -8.506        5.375       0.5780E-2     1.414   
    2.262       -7.793        5.771       0.5822E-2     1.415   
    2.272       -7.096        6.037       0.5865E-2     1.416   
    2.282       -6.437        6.195       0.5908E-2     1.416   
    2.292       -5.827        6.268       0.5952E-2     1.417   
    2.302       -5.271        6.274       0.5995E-2     1.417   
    2.312       -4.770        6.232       0.6039E-2     1.418   
    2.322       -4.322        6.155       0.6084E-2     1.419   
      2.3323      -3.9214       6.0529       0.0061       1.4191
      2.3423      -3.5655       5.9345       0.0062       1.4197
      2.3524      -3.2492       5.8059       0.0062       1.4204
      2.3624      -2.9680       5.6718       0.0063       1.4210
      2.3724      -2.7178       5.5354       0.0063       1.4216
      2.3824      -2.4948       5.3991       0.0064       1.4223
      2.3924      -2.2958       5.2647       0.0064       1.4229
      2.4024      -2.1177       5.1333       0.0064       1.4235
      2.4124      -1.9580       5.0057       0.0065       1.4242
      2.4224      -1.8144       4.8824       0.0065       1.4248
      2.4324      -1.6850       4.7637       0.0066       1.4255
      2.4424      -1.5681       4.6497       0.0066       1.4261
      2.4525      -1.4622       4.5404       0.0067       1.4268
      2.4625      -1.3661       4.4358       0.0067       1.4275
      2.4725      -1.2786       4.3358       0.0068       1.4282
      2.4825      -1.1988       4.2403       0.0068       1.4288
      2.4925      -1.1258       4.1490       0.0069       1.4295
      2.5025      -1.0588       4.0618       0.0069       1.4302
      2.5125      -0.9974       3.9785       0.0070       1.4309
      2.5225      -0.9408       3.8990       0.0070       1.4316
      2.5325      -0.8885       3.8230       0.0071       1.4323
      2.5425      -0.8402       3.7504       0.0071       1.4330
      2.5526      -0.7954       3.6810       0.0072       1.4337
      2.5626      -0.7539       3.6146       0.0073       1.4345
      2.5726      -0.7152       3.5512       0.0073       1.4352
      2.5826      -0.6791       3.4904       0.0074       1.4359
      2.5926      -0.6453       3.4322       0.0074       1.4367
      2.6026      -0.6137       3.3765       0.0075       1.4374
      2.6126      -0.5840       3.3231       0.0075       1.4382
      2.6226      -0.5561       3.2719       0.0076       1.4389
      2.6326      -0.5297       3.2228       0.0076       1.4397
      2.6426      -0.5048       3.1757       0.0077       1.4404
      2.6527      -0.4811       3.1304       0.0078       1.4412
      2.6627      -0.4585       3.0870       0.0078       1.4420
      2.6727      -0.4370       3.0452       0.0079       1.4428
      2.6827      -0.4163       3.0050       0.0079       1.4436
      2.6927      -0.3963       2.9663       0.0080       1.4444
      2.7027      -0.3770       2.9290       0.0080       1.4452
      2.7127      -0.3583       2.8929       0.0081       1.4460
      2.7227      -0.3399       2.8580       0.0082       1.4468
      2.7327      -0.3219       2.8242       0.0082       1.4476
      2.7427      -0.3041       2.7912       0.0083       1.4484
      2.7528      -0.2864       2.7590       0.0083       1.4492
      2.7628      -0.2688       2.7273       0.0084       1.4501
      2.7728      -0.2512       2.6958       0.0085       1.4509
      2.7828      -0.2336       2.6644       0.0085       1.4518
      2.7928      -0.2163       2.6328       0.0086       1.4526
      2.8028      -0.1993       2.6007       0.0087       1.4535
      2.8128      -0.1830       2.5678       0.0087       1.4544
      2.8228      -0.1678       2.5341       0.0088       1.4552
      2.8328      -0.1541       2.4996       0.0089       1.4561
      2.8428      -0.1426       2.4647       0.0089       1.4570
      2.8529      -0.1334       2.4296       0.0090       1.4579
      2.8629      -0.1269       2.3952       0.0091       1.4588
      2.8729      -0.1228       2.3620       0.0091       1.4597
      2.8829      -0.1208       2.3304       0.0092       1.4606
      2.8929      -0.1205       2.3010       0.0093       1.4616
      2.9029      -0.1212       2.2738       0.0094       1.4625
      2.9129      -0.1226       2.2487       0.0094       1.4634
      2.9229      -0.1243       2.2256       0.0095       1.4644
      2.9329      -0.1258       2.2042       0.0096       1.4653
      2.9429      -0.1272       2.1844       0.0096       1.4663
      2.9530      -0.1281       2.1658       0.0097       1.4673
      2.9630      -0.1288       2.1483       0.0098       1.4682
      2.9730      -0.1290       2.1317       0.0099       1.4692
      2.9830      -0.1289       2.1158       0.0099       1.4702
     2.99299     -0.12853      2.10052      0.01002      1.47119
     3.00300     -0.12784      2.08579      0.01010      1.47220
     3.01301     -0.12692      2.07152      0.01018      1.47321
     3.02302     -0.12580      2.05766      0.01026      1.47423
     3.03303     -0.12451      2.04418      0.01034      1.47526
     3.04304     -0.12309      2.03103      0.01042      1.47629
     3.05305     -0.12156      2.01818      0.01050      1.47734
     3.06306     -0.11994      2.00563      0.01058      1.47839
     3.07307     -0.11826      1.99335      0.01067      1.47945
     3.08308     -0.11653      1.98133      0.01075      1.48052
     3.09309     -0.11476      1.96955      0.01084      1.48160
     3.10310     -0.11298      1.95801      0.01092      1.48268
     3.11311     -0.11117      1.94669      0.01101      1.48378
     3.12312     -0.10937      1.93559      0.01110      1.48488
     3.13313     -0.10757      1.92471      0.01118      1.48599
     3.14314     -0.10577      1.91403      0.01127      1.48711
     3.15315     -0.10399      1.90355      0.01136      1.48824
     3.16316     -0.10222      1.89327      0.01146      1.48938
     3.17317     -0.10048      1.88317      0.01155      1.49053
     3.18318     -0.09876      1.87326      0.01164      1.49169
     3.19319     -0.09706      1.86353      0.01174      1.49286
     3.20320     -0.09538      1.85398      0.01183      1.49403
     3.21321     -0.09374      1.84460      0.01193      1.49522
     3.22322     -0.09212      1.83538      0.01202      1.49641
     3.23323     -0.09053      1.82633      0.01212      1.49762
     3.24324     -0.08898      1.81744      0.01222      1.49883
     3.25325     -0.08745      1.80871      0.01232      1.50006
     3.26326     -0.08595      1.80012      0.01242      1.50129
     3.27327     -0.08448      1.79169      0.01253      1.50254
     3.28328     -0.08304      1.78340      0.01263      1.50379
     3.29329     -0.08163      1.77525      0.01273      1.50506
     3.30330     -0.08025      1.76725      0.01284      1.50633
     3.31331     -0.07889      1.75938      0.01295      1.50762
     3.32332     -0.07757      1.75164      0.01306      1.50892
     3.33333     -0.07627      1.74403      0.01317      1.51023
     3.34334     -0.07500      1.73655      0.01328      1.51155
     3.35335     -0.07376      1.72919      0.01339      1.51288
     3.36336     -0.07255      1.72196      0.01350      1.51422
     3.37337     -0.07136      1.71484      0.01362      1.51557
     3.38338     -0.07019      1.70784      0.01373      1.51694
     3.39339     -0.06905      1.70095      0.01385      1.51831
     3.40340     -0.06794      1.69418      0.01397      1.51970
     3.41341     -0.06685      1.68751      0.01409      1.52110
     3.42342     -0.06578      1.68095      0.01421      1.52251
     3.43343     -0.06473      1.67449      0.01433      1.52393
     3.44344     -0.06371      1.66813      0.01445      1.52537
     3.45345     -0.06271      1.66188      0.01458      1.52682
     3.46346     -0.06173      1.65572      0.01471      1.52828
     3.47347     -0.06077      1.64966      0.01483      1.52975
     3.48348     -0.05983      1.64369      0.01496      1.53124
     3.49349     -0.05891      1.63781      0.01510      1.53274
     3.50350     -0.05801      1.63202      0.01523      1.53425
     3.51351     -0.05712      1.62632      0.01536      1.53578
     3.52352     -0.05626      1.62070      0.01550      1.53732
     3.53353     -0.05541      1.61517      0.01564      1.53887
     3.54354     -0.05458      1.60972      0.01578      1.54043
     3.55355     -0.05377      1.60435      0.01592      1.54202
     3.56356     -0.05298      1.59906      0.01606      1.54361
     3.57357     -0.05220      1.59385      0.01620      1.54522
     3.58358     -0.05143      1.58871      0.01635      1.54684
     3.59359     -0.05068      1.58365      0.01650      1.54848
     3.60360     -0.04995      1.57866      0.01665      1.55013
     3.61361     -0.04923      1.57375      0.01680      1.55180
     3.62362     -0.04852      1.56890      0.01696      1.55348
     3.63363     -0.04783      1.56412      0.01711      1.55518
     3.64364     -0.04715      1.55941      0.01727      1.55690
     3.65365     -0.04649      1.55477      0.01743      1.55863
     3.66366     -0.04583      1.55019      0.01759      1.56037
     3.67367     -0.04519      1.54567      0.01776      1.56213
     3.68368     -0.04456      1.54122      0.01792      1.56391
     3.69369     -0.04394      1.53683      0.01809      1.56571
     3.70370     -0.04334      1.53250      0.01826      1.56752
     3.71371     -0.04274      1.52823      0.01843      1.56935
     3.72372     -0.04216      1.52401      0.01861      1.57119
     3.73373     -0.04158      1.51986      0.01879      1.57306
     3.74374     -0.04102      1.51576      0.01897      1.57494
     3.75375     -0.04046      1.51171      0.01915      1.57684
     3.76376     -0.03992      1.50772      0.01933      1.57876
     3.77377     -0.03939      1.50378      0.01952      1.58069
     3.78378     -0.03886      1.49989      0.01971      1.58265
     3.79379     -0.03834      1.49606      0.01990      1.58462
     3.80380     -0.03783      1.49228      0.02010      1.58661
     3.81381     -0.03733      1.48854      0.02029      1.58863
     3.82382     -0.03684      1.48485      0.02050      1.59066
     3.83383     -0.03636      1.48122      0.02070      1.59271
     3.84384     -0.03588      1.47763      0.02090      1.59478
     3.85385     -0.03541      1.47408      0.02111      1.59688
     3.86386     -0.03495      1.47058      0.02133      1.59899
     3.87387     -0.03449      1.46713      0.02154      1.60113
     3.88388     -0.03404      1.46372      0.02176      1.60328
     3.89389     -0.03360      1.46036      0.02198      1.60546
     3.90390     -0.03316      1.45703      0.02221      1.60766
     3.91391     -0.03273      1.45376      0.02243      1.60989
     3.92392     -0.03230      1.45052      0.02266      1.61213
     3.93393     -0.03188      1.44732      0.02290      1.61440
     3.94394     -0.03146      1.44417      0.02314      1.61669
     3.95395     -0.03105      1.44105      0.02338      1.61901
     3.96396     -0.03065      1.43798      0.02362      1.62135
     3.97397     -0.03024      1.43494      0.02387      1.62371
     3.98398     -0.02984      1.43194      0.02413      1.62610
     3.99399     -0.02944      1.42898      0.02438      1.62852
     4.00400     -0.02905      1.42606      0.02464      1.63096
     4.01401     -0.02866      1.42318      0.02491      1.63342
     4.02402     -0.02827      1.42033      0.02518      1.63592
     4.03403     -0.02788      1.41752      0.02545      1.63844
     4.04404     -0.02749      1.41475      0.02573      1.64098
     4.05405     -0.02710      1.41201      0.02601      1.64356
     4.06406     -0.02670      1.40931      0.02630      1.64616
     4.07407     -0.02631      1.40664      0.02659      1.64879
     4.08408     -0.02592      1.40401      0.02688      1.65145
     4.09409     -0.02552      1.40141      0.02718      1.65414
     4.10410     -0.02511      1.39885      0.02749      1.65686
     4.11411     -0.02470      1.39632      0.02780      1.65961
     4.12412     -0.02428      1.39382      0.02811      1.66239
     4.13413     -0.02384      1.39136      0.02843      1.66520
     4.14414     -0.02340      1.38893      0.02876      1.66805
     4.15415     -0.02294      1.38652      0.02909      1.67093
     4.16416     -0.02246      1.38415      0.02943      1.67384
     4.17417     -0.02197      1.38180      0.02977      1.67678
     4.18418     -0.02145      1.37948      0.03012      1.67976
     4.19419     -0.02090      1.37717      0.03047      1.68277
     4.20420     -0.02031      1.37489      0.03083      1.68582
     4.21421     -0.01969      1.37261      0.03120      1.68890
     4.22422     -0.01903      1.37033      0.03157      1.69202
     4.23423     -0.01833      1.36804      0.03195      1.69518
     4.24424     -0.01758      1.36573      0.03234      1.69837
     4.25425     -0.01679      1.36338      0.03273      1.70160
     4.26426     -0.01596      1.36097      0.03313      1.70488
     4.27427     -0.01511      1.35849      0.03354      1.70819
     4.28428     -0.01424      1.35591      0.03396      1.71154
     4.29429     -0.01340      1.35321      0.03438      1.71494
     4.30430     -0.01263      1.35040      0.03481      1.71837
     4.31431     -0.01196      1.34747      0.03525      1.72185
     4.32432     -0.01144      1.34446      0.03570      1.72538
     4.33433     -0.01110      1.34141      0.03615      1.72894
     4.34434     -0.01096      1.33837      0.03662      1.73256
     4.35435     -0.01101      1.33540      0.03709      1.73621
     4.36436     -0.01122      1.33255      0.03757      1.73992
     4.37437     -0.01154      1.32984      0.03806      1.74367
     4.38438     -0.01194      1.32729      0.03856      1.74748
     4.39439     -0.01238      1.32491      0.03907      1.75133
     4.40440     -0.01281      1.32266      0.03960      1.75523
     4.41441     -0.01323      1.32055      0.04013      1.75919
     4.42442     -0.01360      1.31853      0.04067      1.76319
     4.43443     -0.01394      1.31661      0.04122      1.76726
     4.44444     -0.01422      1.31475      0.04179      1.77137
     4.45445     -0.01446      1.31295      0.04236      1.77554
     4.46446     -0.01466      1.31119      0.04295      1.77977
     4.47447     -0.01482      1.30947      0.04355      1.78406
     4.48448     -0.01495      1.30778      0.04416      1.78841
     4.49449     -0.01504      1.30611      0.04479      1.79282
     4.50450     -0.01511      1.30447      0.04543      1.79729
     4.51451     -0.01515      1.30284      0.04608      1.80182
     4.52452     -0.01517      1.30123      0.04675      1.80642
     4.53453     -0.01517      1.29963      0.04743      1.81108
     4.54454     -0.01516      1.29804      0.04812      1.81581
     4.55455     -0.01514      1.29647      0.04883      1.82061
     4.56456     -0.01510      1.29491      0.04956      1.82548
     4.57457     -0.01505      1.29336      0.05031      1.83042
     4.58458     -0.01500      1.29182      0.05107      1.83544
     4.59459     -0.01494      1.29029      0.05184      1.84053
     4.60460     -0.01487      1.28877      0.05264      1.84570
     4.61461     -0.01479      1.28727      0.05346      1.85095
     4.62462     -0.01471      1.28577      0.05429      1.85627
     4.63463     -0.01463      1.28429      0.05514      1.86168
     4.64464     -0.01454      1.28282      0.05602      1.86718
     4.65465     -0.01445      1.28135      0.05691      1.87276
     4.66466     -0.01436      1.27990      0.05783      1.87843
     4.67467     -0.01426      1.27846      0.05877      1.88418
     4.68468     -0.01417      1.27703      0.05973      1.89004
     4.69469     -0.01407      1.27561      0.06072      1.89598
     4.70470     -0.01397      1.27420      0.06173      1.90202
     4.71471     -0.01387      1.27281      0.06276      1.90817
     4.72472     -0.01377      1.27142      0.06383      1.91441
     4.73473     -0.01367      1.27004      0.06492      1.92076
     4.74474     -0.01356      1.26868      0.06604      1.92722
     4.75475     -0.01346      1.26733      0.06719      1.93378
     4.76476     -0.01336      1.26598      0.06836      1.94046
     4.77477     -0.01325      1.26465      0.06958      1.94726
     4.78478     -0.01315      1.26333      0.07082      1.95417
     4.79479     -0.01304      1.26202      0.07210      1.96121
     4.80480     -0.01294      1.26072      0.07341      1.96837
     4.81481     -0.01284      1.25943      0.07476      1.97566
     4.82482     -0.01273      1.25815      0.07615      1.98308
     4.83483     -0.01263      1.25688      0.07757      1.99064
     4.84484     -0.01252      1.25562      0.07904      1.99834
     4.85485     -0.01242      1.25437      0.08055      2.00618
     4.86486     -0.01232      1.25313      0.08211      2.01416
     4.87487     -0.01222      1.25190      0.08371      2.02230
     4.88488     -0.01211      1.25069      0.08536      2.03060
     4.89489     -0.01201      1.24948      0.08706      2.03906
     4.90490     -0.01191      1.24828      0.08881      2.04768
     4.91491     -0.01181      1.24710      0.09062      2.05647
     4.92492     -0.01170      1.24592      0.09248      2.06544
     4.93493     -0.01160      1.24475      0.09440      2.07459
     4.94494     -0.01150      1.24360      0.09639      2.08392
     4.95495     -0.01140      1.24245      0.09843      2.09345
     4.96496     -0.01130      1.24132      0.10055      2.10318
     4.97497     -0.01120      1.24019      0.10273      2.11311
     4.98498     -0.01110      1.23907      0.10499      2.12325
     4.99499     -0.01100      1.23797      0.10733      2.13361
     5.00500     -0.01090      1.23687      0.10974      2.14419
     5.01501     -0.01080      1.23579      0.11225      2.15501
     5.02502     -0.01069      1.23471      0.11483      2.16607
     5.03503     -0.01059      1.23364      0.11752      2.17737
     5.04504     -0.01049      1.23259      0.12029      2.18894
     5.05505     -0.01039      1.23154      0.12317      2.20077
     5.06506     -0.01029      1.23050      0.12616      2.21287
     5.07507     -0.01019      1.22948      0.12926      2.22526
     5.08508     -0.01008      1.22846      0.13248      2.23794
      5.0951      -0.0100       1.2275       0.1358       2.2509
      5.1051      -0.0099       1.2265       0.1393       2.2642
      5.1151      -0.0098       1.2255       0.1429       2.2779
      5.1251      -0.0097       1.2245       0.1467       2.2919
      5.1351      -0.0096       1.2235       0.1506       2.3062
      5.1451      -0.0094       1.2226       0.1547       2.3209
      5.1552      -0.0093       1.2216       0.1589       2.3360
      5.1652      -0.0092       1.2207       0.1633       2.3515
      5.1752      -0.0091       1.2198       0.1680       2.3674
      5.1852      -0.0090       1.2188       0.1728       2.3837
      5.1952      -0.0089       1.2179       0.1778       2.4005
      5.2052      -0.0088       1.2170       0.1831       2.4177
      5.2152      -0.0086       1.2162       0.1886       2.4355
      5.2252      -0.0085       1.2153       0.1944       2.4537
      5.2352      -0.0084       1.2144       0.2005       2.4725
      5.2452      -0.0082       1.2136       0.2068       2.4918
      5.2553      -0.0081       1.2127       0.2135       2.5117
      5.2653      -0.0079       1.2119       0.2205       2.5322
      5.2753      -0.0078       1.2111       0.2279       2.5533
      5.2853      -0.0076       1.2103       0.2356       2.5751
      5.2953      -0.0074       1.2095       0.2438       2.5976
      5.3053      -0.0073       1.2087       0.2524       2.6208
      5.3153      -0.0071       1.2080       0.2615       2.6448
      5.3253      -0.0069       1.2072       0.2711       2.6696
      5.3353      -0.0067       1.2065       0.2812       2.6952
      5.3453      -0.0064       1.2058       0.2920       2.7217
      5.3554      -0.0062       1.2051       0.3034       2.7491
      5.3654      -0.0059       1.2044       0.3155       2.7775
      5.3754      -0.0056       1.2037       0.3284       2.8069
    5.385       -.5296E-2     1.203       0.3421        2.837   
    5.395       -.4947E-2     1.202       0.3566        2.869   
    5.405       -.4564E-2     1.202       0.3722        2.902   
    5.415       -.4142E-2     1.201       0.3888        2.936   
    5.425       -.3674E-2     1.200       0.4066        2.971   
    5.435       -.3157E-2     1.200       0.4257        3.008   
    5.445       -.2582E-2     1.199       0.4462        3.046   
    5.455       -.1943E-2     1.198       0.4683        3.086   
    5.465       -.1236E-2     1.198       0.4920        3.127   
    5.475       -.4535E-3     1.197       0.5176        3.170   
    5.485       0.4051E-3     1.196       0.5454        3.215   
    5.495       0.1338E-2     1.195       0.5754        3.262   
    5.506       0.2335E-2     1.194       0.6081        3.310   
    5.516       0.3377E-2     1.193       0.6436        3.361   
    5.526       0.4432E-2     1.191       0.6823        3.414   
    5.536       0.5451E-2     1.190       0.7247        3.469   
      5.5455       0.0064       1.1880       0.7711       3.5262
      5.5556       0.0071       1.1860       0.8221       3.5858
      5.5656       0.0076       1.1838       0.8783       3.6476
      5.5756       0.0079       1.1815       0.9403       3.7116
      5.5856       0.0078       1.1792       1.0089       3.7778
      5.5956       0.0074       1.1770       1.0850       3.8458
      5.6056       0.0068       1.1750       1.1695       3.9155
      5.6156       0.0060       1.1731       1.2637       3.9863
    5.626       0.5132E-2     1.172        1.369        4.057   
    5.636       0.4183E-2     1.170        1.486        4.128   
    5.646       0.3237E-2     1.169        1.617        4.197   
    5.656       0.2332E-2     1.168        1.763        4.262   
    5.666       0.1489E-2     1.167        1.925        4.320   
    5.676       0.7185E-3     1.166        2.105        4.370   
    5.686       0.2483E-4     1.166        2.303        4.406   
    5.696       -.5938E-3     1.165        2.518        4.424   
    5.706       -.1142E-2     1.164        2.750        4.420   
    5.716       -.1625E-2     1.164        2.995        4.388   
    5.726       -.2050E-2     1.163        3.247        4.324   
    5.736       -.2422E-2     1.163        3.499        4.225   
    5.746       -.2749E-2     1.162        3.745        4.090   
    5.756       -.3035E-2     1.162        3.975        3.923   
    5.766       -.3286E-2     1.161        4.185        3.728   
    5.776       -.3506E-2     1.161        4.372        3.512   
    5.786       -.3699E-2     1.161        4.537        3.279   
    5.796       -.3867E-2     1.160        4.681        3.031   
    5.806       -.4015E-2     1.160        4.806        2.768   
    5.816       -.4144E-2     1.159        4.909        2.486   
    5.826       -.4258E-2     1.159        4.985        2.184   
    5.836       -.4357E-2     1.158        5.024        1.861   
    5.846       -.4443E-2     1.158        5.016        1.525   
    5.856       -.4518E-2     1.157        4.953        1.188   
    5.866       -.4583E-2     1.157        4.832       0.8666   
    5.876       -.4639E-2     1.156        4.660       0.5772   
    5.886       -.4688E-2     1.156        4.447       0.3330   
    5.896       -.4729E-2     1.155        4.208       0.1419   
    5.906       -.4765E-2     1.155        3.958       0.5581E-2
    5.916       -.4794E-2     1.154        3.711       -.7899E-1
    5.926       -.4819E-2     1.154        3.479       -.1181   
    5.936       -.4838E-2     1.153        3.267       -.1196   
    5.946       -.4854E-2     1.153        3.081       -.9132E-1
    5.956       -.4866E-2     1.152        2.924       -.4089E-1
    5.966       -.4875E-2     1.152        2.795       0.2508E-1
    5.976       -.4880E-2     1.151        2.696       0.1007   
    5.986       -.4883E-2     1.151        2.625       0.1809   
    5.996       -.4883E-2     1.150        2.582       0.2609   
    6.006       -.4880E-2     1.150        2.565       0.3362   
    6.016       -.4876E-2     1.149        2.574       0.4021   
    6.026       -.4870E-2     1.149        2.607       0.4538   
    6.036       -.4861E-2     1.148        2.660       0.4862   
    6.046       -.4851E-2     1.148        2.731       0.4940   
    6.056       -.4840E-2     1.147        2.812       0.4722   
    6.066       -.4826E-2     1.147        2.896       0.4168   
    6.076       -.4812E-2     1.146        2.974       0.3262   
    6.086       -.4796E-2     1.146        3.034       0.2019   
    6.096       -.4779E-2     1.145        3.064       0.4990E-1
    6.106       -.4761E-2     1.145        3.058       -.1197   
    6.116       -.4742E-2     1.144        3.010       -.2939   
    6.126       -.4722E-2     1.144        2.921       -.4591   
    6.136       -.4701E-2     1.143        2.798       -.6037   
    6.146       -.4679E-2     1.143        2.650       -.7199   
    6.156       -.4656E-2     1.142        2.487       -.8042   
    6.166       -.4632E-2     1.142        2.319       -.8567   
    6.176       -.4607E-2     1.141        2.154       -.8805   
    6.186       -.4581E-2     1.141        1.996       -.8797   
    6.196       -.4555E-2     1.141        1.850       -.8590   
    6.206       -.4527E-2     1.140        1.718       -.8227   
    6.216       -.4499E-2     1.140        1.599       -.7749   
    6.226       -.4469E-2     1.139        1.493       -.7185   
    6.236       -.4438E-2     1.139        1.401       -.6563   
    6.246       -.4407E-2     1.138        1.321       -.5901   
    6.256       -.4374E-2     1.138        1.253       -.5215   
    6.266       -.4340E-2     1.137        1.195       -.4515   
    6.276       -.4305E-2     1.137        1.146       -.3810   
    6.286       -.4269E-2     1.137        1.107       -.3106   
    6.296       -.4231E-2     1.136        1.077       -.2407   
    6.306       -.4191E-2     1.136        1.055       -.1719   
    6.316       -.4150E-2     1.135        1.040       -.1045   
    6.326       -.4108E-2     1.135        1.034       -.3873E-1
    6.336       -.4063E-2     1.134        1.036       0.2483E-1
    6.346       -.4016E-2     1.134        1.046       0.8568E-1
    6.356       -.3967E-2     1.134        1.064       0.1431   
    6.366       -.3915E-2     1.133        1.091       0.1962   
    6.376       -.3860E-2     1.133        1.127       0.2438   
    6.386       -.3801E-2     1.132        1.171       0.2842   
    6.396       -.3740E-2     1.132        1.224       0.3157   
    6.406       -.3674E-2     1.132        1.285       0.3357   
    6.416       -.3603E-2     1.131        1.352       0.3417   
    6.426       -.3527E-2     1.131        1.424       0.3311   
    6.436       -.3445E-2     1.130        1.496       0.3013   
    6.446       -.3356E-2     1.130        1.563       0.2511   
    6.456       -.3260E-2     1.130        1.620       0.1806   
    6.466       -.3155E-2     1.129        1.660       0.9249E-1
    6.476       -.3040E-2     1.129        1.678       -.8199E-2
    6.486       -.2914E-2     1.129        1.670       -.1143   
    6.496       -.2774E-2     1.128        1.636       -.2178   
    6.507       -.2620E-2     1.128        1.580       -.3114   
    6.517       -.2450E-2     1.128        1.505       -.3896   
    6.527       -.2260E-2     1.127        1.418       -.4493   
    6.537       -.2050E-2     1.127        1.326       -.4901   
    6.547       -.1816E-2     1.126        1.232       -.5130   
    6.557       -.1558E-2     1.126        1.141       -.5205   
    6.567       -.1274E-2     1.126        1.055       -.5152   
    6.577       -.9648E-3     1.125       0.9764       -.4997   
    6.587       -.6331E-3     1.125       0.9047       -.4766   
    6.597       -.2847E-3     1.124       0.8402       -.4478   
    6.607       0.7054E-4     1.124       0.7828       -.4150   
    6.617       0.4174E-3     1.123       0.7319       -.3794   
    6.627       0.7361E-3     1.122       0.6871       -.3420   
    6.637       0.1003E-2     1.121       0.6477       -.3036   
    6.647       0.1196E-2     1.121       0.6132       -.2646   
    6.657       0.1296E-2     1.120       0.5833       -.2255   
    6.667       0.1294E-2     1.119       0.5574       -.1865   
    6.677       0.1192E-2     1.118       0.5352       -.1478   
    6.687       0.1004E-2     1.117       0.5164       -.1094   
    6.697       0.7516E-3     1.116       0.5007       -.7161E-1
    6.707       0.4575E-3     1.116       0.4880       -.3430E-1
    6.717       0.1440E-3     1.115       0.4781       0.2466E-2
    6.727       -.1709E-3     1.114       0.4709       0.3867E-1
    6.737       -.4742E-3     1.114       0.4663       0.7430E-1
    6.747       -.7579E-3     1.114       0.4645       0.1093   
    6.757       -.1017E-2     1.113       0.4653       0.1437   
    6.767       -.1251E-2     1.113       0.4690       0.1775   
    6.777       -.1460E-2     1.112       0.4756       0.2104   
    6.787       -.1645E-2     1.112       0.4853       0.2424   
    6.797       -.1807E-2     1.112       0.4983       0.2732   
    6.807       -.1949E-2     1.112       0.5149       0.3025   
    6.817       -.2074E-2     1.111       0.5353       0.3299   
    6.827       -.2182E-2     1.111       0.5598       0.3549   
    6.837       -.2277E-2     1.111       0.5885       0.3765   
    6.847       -.2359E-2     1.110       0.6216       0.3939   
    6.857       -.2431E-2     1.110       0.6588       0.4058   
    6.867       -.2493E-2     1.110       0.6997       0.4109   
    6.877       -.2547E-2     1.110       0.7433       0.4076   
    6.887       -.2594E-2     1.109       0.7879       0.3943   
    6.897       -.2634E-2     1.109       0.8312       0.3700   
    6.907       -.2669E-2     1.109       0.8701       0.3341   
    6.917       -.2699E-2     1.108       0.9010       0.2875   
    6.927       -.2724E-2     1.108       0.9207       0.2322   
    6.937       -.2745E-2     1.108       0.9265       0.1716   
    6.947       -.2763E-2     1.108       0.9173       0.1102   
    6.957       -.2778E-2     1.107       0.8939       0.5241E-1
    6.967       -.2790E-2     1.107       0.8583       0.1934E-2
    6.977       -.2799E-2     1.107       0.8139       -.3875E-1
    6.987       -.2807E-2     1.106       0.7641       -.6860E-1
    6.997       -.2812E-2     1.106       0.7122       -.8783E-1
    7.007       -.2815E-2     1.106       0.6606       -.9746E-1
    7.017       -.2817E-2     1.106       0.6112       -.9893E-1
    7.027       -.2817E-2     1.105       0.5650       -.9381E-1
    7.037       -.2815E-2     1.105       0.5227       -.8356E-1
    7.047       -.2813E-2     1.105       0.4844       -.6946E-1
    7.057       -.2809E-2     1.104       0.4501       -.5257E-1
    7.067       -.2804E-2     1.104       0.4195       -.3372E-1
    7.077       -.2798E-2     1.104       0.3923       -.1356E-1
    7.087       -.2791E-2     1.104       0.3683       0.7437E-2
    7.097       -.2783E-2     1.103       0.3471       0.2890E-1
    7.107       -.2774E-2     1.103       0.3284       0.5056E-1
    7.117       -.2765E-2     1.103       0.3119       0.7225E-1
    7.127       -.2754E-2     1.102       0.2975       0.9383E-1
    7.137       -.2743E-2     1.102       0.2850       0.1152   
    7.147       -.2731E-2     1.102       0.2740       0.1363   
    7.157       -.2718E-2     1.102       0.2646       0.1572   
    7.167       -.2705E-2     1.101       0.2565       0.1778   
    7.177       -.2691E-2     1.101       0.2498       0.1980   
    7.187       -.2676E-2     1.101       0.2442       0.2180   
    7.197       -.2660E-2     1.100       0.2398       0.2377   
    7.207       -.2643E-2     1.100       0.2365       0.2571   
    7.217       -.2626E-2     1.100       0.2342       0.2763   
    7.227       -.2608E-2     1.100       0.2331       0.2952   
    7.237       -.2589E-2     1.099       0.2330       0.3140   
    7.247       -.2568E-2     1.099       0.2341       0.3325   
    7.257       -.2547E-2     1.099       0.2364       0.3507   
    7.267       -.2525E-2     1.099       0.2399       0.3687   
    7.277       -.2501E-2     1.098       0.2448       0.3864   
    7.287       -.2477E-2     1.098       0.2511       0.4038   
    7.297       -.2450E-2     1.098       0.2590       0.4207   
    7.307       -.2423E-2     1.098       0.2687       0.4370   
    7.317       -.2393E-2     1.097       0.2802       0.4526   
    7.327       -.2362E-2     1.097       0.2938       0.4671   
    7.337       -.2329E-2     1.097       0.3097       0.4802   
    7.347       -.2293E-2     1.097       0.3278       0.4914   
    7.357       -.2255E-2     1.096       0.3484       0.5002   
    7.367       -.2214E-2     1.096       0.3712       0.5059   
    7.377       -.2169E-2     1.096       0.3960       0.5075   
    7.387       -.2121E-2     1.096       0.4221       0.5042   
    7.397       -.2069E-2     1.095       0.4487       0.4952   
    7.407       -.2012E-2     1.095       0.4741       0.4799   
    7.417       -.1950E-2     1.095       0.4968       0.4579   
    7.427       -.1882E-2     1.095       0.5146       0.4300   
    7.437       -.1807E-2     1.095       0.5256       0.3972   
    7.447       -.1724E-2     1.094       0.5284       0.3618   
    7.457       -.1632E-2     1.094       0.5225       0.3263   
    7.467       -.1530E-2     1.094       0.5085       0.2932   
    7.477       -.1416E-2     1.094       0.4877       0.2646   
    7.487       -.1290E-2     1.093       0.4621       0.2417   
    7.497       -.1149E-2     1.093       0.4335       0.2252   
    7.508       -.9928E-3     1.093       0.4039       0.2147   
    7.518       -.8196E-3     1.093       0.3746       0.2097   
    7.528       -.6290E-3     1.093       0.3466       0.2093   
    7.538       -.4217E-3     1.092       0.3205       0.2126   
    7.548       -.1996E-3     1.092       0.2967       0.2188   
    7.558       0.3271E-4     1.092       0.2751       0.2271   
    7.568       0.2681E-3     1.091       0.2557       0.2370   
    7.578       0.4958E-3     1.091       0.2384       0.2480   
    7.588       0.7020E-3     1.090       0.2231       0.2597   
    7.598       0.8709E-3     1.090       0.2095       0.2718   
    7.608       0.9874E-3     1.089       0.1975       0.2842   
    7.618       0.1040E-2     1.089       0.1869       0.2968   
    7.628       0.1024E-2     1.088       0.1775       0.3093   
    7.638       0.9418E-3     1.087       0.1693       0.3217   
    7.648       0.8044E-3     1.087       0.1620       0.3341   
    7.658       0.6261E-3     1.086       0.1556       0.3463   
    7.668       0.4228E-3     1.086       0.1501       0.3583   
    7.678       0.2089E-3     1.086       0.1452       0.3702   
    7.688       -.4016E-5     1.085       0.1411       0.3819   
    7.698       -.2080E-3     1.085       0.1376       0.3934   
    7.708       -.3981E-3     1.085       0.1346       0.4048   
    7.718       -.5717E-3     1.084       0.1322       0.4160   
    7.728       -.7281E-3     1.084       0.1303       0.4271   
    7.738       -.8674E-3     1.084       0.1290       0.4380   
    7.748       -.9908E-3     1.084       0.1281       0.4489   
    7.758       -.1099E-2     1.084       0.1278       0.4596   
    7.768       -.1195E-2     1.083       0.1280       0.4703   
    7.778       -.1279E-2     1.083       0.1287       0.4808   
    7.788       -.1352E-2     1.083       0.1300       0.4913   
    7.798       -.1416E-2     1.083       0.1320       0.5016   
    7.808       -.1472E-2     1.083       0.1345       0.5119   
    7.818       -.1521E-2     1.083       0.1378       0.5221   
    7.828       -.1563E-2     1.082       0.1419       0.5321   
    7.838       -.1600E-2     1.082       0.1469       0.5419   
    7.848       -.1633E-2     1.082       0.1527       0.5514   
    7.858       -.1661E-2     1.082       0.1597       0.5605   
    7.868       -.1685E-2     1.082       0.1678       0.5691   
    7.878       -.1706E-2     1.081       0.1771       0.5770   
    7.888       -.1724E-2     1.081       0.1878       0.5840   
    7.898       -.1740E-2     1.081       0.1999       0.5896   
    7.908       -.1753E-2     1.081       0.2133       0.5936   
    7.918       -.1764E-2     1.081       0.2280       0.5954   
    7.928       -.1773E-2     1.081       0.2436       0.5945   
    7.938       -.1780E-2     1.080       0.2597       0.5904   
    7.948       -.1786E-2     1.080       0.2756       0.5826   
    7.958       -.1790E-2     1.080       0.2901       0.5710   
    7.968       -.1793E-2     1.080       0.3022       0.5556   
    7.978       -.1795E-2     1.080       0.3107       0.5370   
    7.988       -.1795E-2     1.079       0.3145       0.5163   
    7.998       -.1795E-2     1.079       0.3132       0.4949   
    8.008       -.1794E-2     1.079       0.3069       0.4744   
    8.018       -.1791E-2     1.079       0.2961       0.4562   
    8.028       -.1788E-2     1.079       0.2819       0.4412   
    8.038       -.1784E-2     1.078       0.2655       0.4299   
    8.048       -.1779E-2     1.078       0.2481       0.4223   
    8.058       -.1774E-2     1.078       0.2305       0.4181   
    8.068       -.1767E-2     1.078       0.2136       0.4169   
    8.078       -.1760E-2     1.078       0.1976       0.4182   
    8.088       -.1752E-2     1.078       0.1829       0.4213   
    8.098       -.1743E-2     1.077       0.1696       0.4259   
    8.108       -.1734E-2     1.077       0.1576       0.4316   
    8.118       -.1723E-2     1.077       0.1469       0.4380   
    8.128       -.1712E-2     1.077       0.1373       0.4450   
    8.138       -.1700E-2     1.077       0.1289       0.4522   
    8.148       -.1686E-2     1.077       0.1214       0.4597   
    8.158       -.1672E-2     1.076       0.1147       0.4673   
    8.168       -.1657E-2     1.076       0.1089       0.4749   
    8.178       -.1640E-2     1.076       0.1037       0.4825   
    8.188       -.1622E-2     1.076       0.9912E-1    0.4900   
    8.198       -.1602E-2     1.076       0.9510E-1    0.4974   
    8.208       -.1581E-2     1.076       0.9156E-1    0.5048   
    8.218       -.1558E-2     1.075       0.8846E-1    0.5120   
    8.228       -.1533E-2     1.075       0.8576E-1    0.5192   
    8.238       -.1505E-2     1.075       0.8342E-1    0.5262   
    8.248       -.1476E-2     1.075       0.8142E-1    0.5332   
    8.258       -.1443E-2     1.075       0.7974E-1    0.5400   
    8.268       -.1407E-2     1.075       0.7835E-1    0.5468   
    8.278       -.1367E-2     1.074       0.7725E-1    0.5535   
    8.288       -.1323E-2     1.074       0.7642E-1    0.5601   
    8.298       -.1274E-2     1.074       0.7587E-1    0.5667   
    8.308       -.1219E-2     1.074       0.7559E-1    0.5732   
    8.318       -.1159E-2     1.074       0.7558E-1    0.5797   
    8.328       -.1091E-2     1.074       0.7585E-1    0.5861   
    8.338       -.1016E-2     1.073       0.7642E-1    0.5925   
    8.348       -.9319E-3     1.073       0.7731E-1    0.5988   
    8.358       -.8391E-3     1.073       0.7853E-1    0.6051   
    8.368       -.7368E-3     1.073       0.8011E-1    0.6114   
    8.378       -.6252E-3     1.073       0.8209E-1    0.6176   
    8.388       -.5053E-3     1.073       0.8450E-1    0.6238   
    8.398       -.3793E-3     1.072       0.8740E-1    0.6299   
    8.408       -.2509E-3     1.072       0.9083E-1    0.6358   
    8.418       -.1255E-3     1.072       0.9486E-1    0.6416   
    8.428       -.1054E-4     1.072       0.9954E-1    0.6471   
    8.438       0.8560E-4     1.071       0.1049       0.6523   
    8.448       0.1545E-3     1.071       0.1111       0.6570   
    8.458       0.1894E-3     1.070       0.1182       0.6610   
    8.468       0.1871E-3     1.070       0.1260       0.6642   
    8.478       0.1486E-3     1.070       0.1347       0.6663   
    8.488       0.7874E-4     1.069       0.1442       0.6670   
    8.498       -.1463E-4     1.069       0.1541       0.6659   
    8.509       -.1229E-3     1.069       0.1642       0.6627   
    8.519       -.2381E-3     1.069       0.1740       0.6572   
    8.529       -.3537E-3     1.068       0.1828       0.6493   
    8.539       -.4649E-3     1.068       0.1898       0.6392   
    8.549       -.5688E-3     1.068       0.1943       0.6272   
    8.559       -.6639E-3     1.068       0.1959       0.6141   
    8.569       -.7496E-3     1.068       0.1942       0.6010   
    8.579       -.8259E-3     1.068       0.1895       0.5886   
    8.589       -.8935E-3     1.067       0.1821       0.5779   
    8.599       -.9528E-3     1.067       0.1729       0.5693   
    8.609       -.1005E-2     1.067       0.1625       0.5630   
    8.619       -.1050E-2     1.067       0.1517       0.5590   
    8.629       -.1090E-2     1.067       0.1409       0.5571   
    8.639       -.1124E-2     1.067       0.1305       0.5569   
    8.649       -.1154E-2     1.067       0.1209       0.5581   
    8.659       -.1180E-2     1.066       0.1120       0.5604   
    8.669       -.1202E-2     1.066       0.1040       0.5636   
    8.679       -.1222E-2     1.066       0.9680E-1    0.5674   
    8.689       -.1238E-2     1.066       0.9038E-1    0.5716   
    8.699       -.1252E-2     1.066       0.8467E-1    0.5761   
    8.709       -.1264E-2     1.066       0.7961E-1    0.5807   
    8.719       -.1274E-2     1.066       0.7513E-1    0.5855   
    8.729       -.1283E-2     1.065       0.7116E-1    0.5903   
    8.739       -.1289E-2     1.065       0.6766E-1    0.5952   
    8.749       -.1295E-2     1.065       0.6456E-1    0.6000   
    8.759       -.1299E-2     1.065       0.6182E-1    0.6048   
    8.769       -.1302E-2     1.065       0.5940E-1    0.6095   
    8.779       -.1303E-2     1.065       0.5728E-1    0.6141   
    8.789       -.1304E-2     1.065       0.5541E-1    0.6187   
    8.799       -.1304E-2     1.065       0.5378E-1    0.6233   
    8.809       -.1303E-2     1.064       0.5237E-1    0.6278   
    8.819       -.1301E-2     1.064       0.5116E-1    0.6322   
    8.829       -.1298E-2     1.064       0.5013E-1    0.6366   
    8.839       -.1294E-2     1.064       0.4927E-1    0.6409   
    8.849       -.1290E-2     1.064       0.4858E-1    0.6451   
    8.859       -.1285E-2     1.064       0.4805E-1    0.6494   
    8.869       -.1279E-2     1.064       0.4768E-1    0.6535   
    8.879       -.1272E-2     1.063       0.4746E-1    0.6577   
    8.889       -.1264E-2     1.063       0.4740E-1    0.6618   
    8.899       -.1255E-2     1.063       0.4751E-1    0.6659   
    8.909       -.1245E-2     1.063       0.4778E-1    0.6700   
    8.919       -.1234E-2     1.063       0.4822E-1    0.6741   
    8.929       -.1222E-2     1.063       0.4885E-1    0.6781   
    8.939       -.1208E-2     1.063       0.4968E-1    0.6822   
    8.949       -.1193E-2     1.063       0.5073E-1    0.6862   
    8.959       -.1177E-2     1.062       0.5202E-1    0.6902   
    8.969       -.1158E-2     1.062       0.5358E-1    0.6942   
    8.979       -.1138E-2     1.062       0.5543E-1    0.6981   
    8.989       -.1115E-2     1.062       0.5761E-1    0.7020   
    8.999       -.1090E-2     1.062       0.6015E-1    0.7057   
    9.009       -.1062E-2     1.062       0.6310E-1    0.7094   
    9.019       -.1030E-2     1.062       0.6649E-1    0.7128   
    9.029       -.9950E-3     1.062       0.7038E-1    0.7160   
    9.039       -.9560E-3     1.061       0.7479E-1    0.7188   
    9.049       -.9126E-3     1.061       0.7975E-1    0.7211   
    9.059       -.8647E-3     1.061       0.8525E-1    0.7227   
    9.069       -.8122E-3     1.061       0.9124E-1    0.7235   
    9.079       -.7554E-3     1.061       0.9762E-1    0.7232   
    9.089       -.6951E-3     1.061       0.1042       0.7217   
    9.099       -.6327E-3     1.061       0.1107       0.7187   
    9.109       -.5705E-3     1.060       0.1166       0.7142   
    9.119       -.5115E-3     1.060       0.1217       0.7081   
    9.129       -.4597E-3     1.060       0.1252       0.7008   
    9.139       -.4191E-3     1.060       0.1270       0.6926   
    9.149       -.3935E-3     1.060       0.1266       0.6841   
    9.159       -.3852E-3     1.059       0.1243       0.6759   
    9.169       -.3945E-3     1.059       0.1201       0.6686   
    9.179       -.4200E-3     1.059       0.1145       0.6626   
    9.189       -.4583E-3     1.059       0.1080       0.6581   
    9.199       -.5055E-3     1.059       0.1011       0.6551   
    9.209       -.5574E-3     1.058       0.9407E-1    0.6535   
    9.219       -.6107E-3     1.058       0.8729E-1    0.6531   
    9.229       -.6627E-3     1.058       0.8091E-1    0.6537   
    9.239       -.7116E-3     1.058       0.7501E-1    0.6550   
    9.249       -.7565E-3     1.058       0.6966E-1    0.6570   
    9.259       -.7968E-3     1.058       0.6484E-1    0.6594   
    9.269       -.8324E-3     1.058       0.6054E-1    0.6621   
    9.279       -.8636E-3     1.057       0.5671E-1    0.6650   
    9.289       -.8906E-3     1.057       0.5331E-1    0.6681   
    9.299       -.9137E-3     1.057       0.5029E-1    0.6712   
    9.309       -.9334E-3     1.057       0.4763E-1    0.6744   
    9.319       -.9499E-3     1.057       0.4527E-1    0.6776   
    9.329       -.9636E-3     1.057       0.4319E-1    0.6808   
    9.339       -.9747E-3     1.057       0.4134E-1    0.6840   
    9.349       -.9835E-3     1.057       0.3972E-1    0.6871   
    9.359       -.9903E-3     1.057       0.3828E-1    0.6903   
    9.369       -.9951E-3     1.056       0.3702E-1    0.6933   
    9.379       -.9982E-3     1.056       0.3591E-1    0.6964   
    9.389       -.9997E-3     1.056       0.3495E-1    0.6994   
    9.399       -.9995E-3     1.056       0.3411E-1    0.7023   
    9.409       -.9978E-3     1.056       0.3340E-1    0.7053   
    9.419       -.9947E-3     1.056       0.3279E-1    0.7081   
    9.429       -.9900E-3     1.056       0.3230E-1    0.7110   
    9.439       -.9839E-3     1.056       0.3190E-1    0.7138   
    9.449       -.9761E-3     1.056       0.3160E-1    0.7166   
    9.459       -.9667E-3     1.056       0.3140E-1    0.7194   
    9.469       -.9556E-3     1.055       0.3129E-1    0.7222   
    9.479       -.9426E-3     1.055       0.3129E-1    0.7249   
    9.489       -.9276E-3     1.055       0.3138E-1    0.7277   
    9.499       -.9103E-3     1.055       0.3157E-1    0.7304   
    9.510       -.8906E-3     1.055       0.3188E-1    0.7331   
    9.520       -.8681E-3     1.055       0.3230E-1    0.7358   
    9.530       -.8428E-3     1.055       0.3284E-1    0.7385   
    9.540       -.8142E-3     1.055       0.3352E-1    0.7413   
    9.550       -.7823E-3     1.055       0.3436E-1    0.7439   
    9.560       -.7470E-3     1.054       0.3535E-1    0.7466   
    9.570       -.7084E-3     1.054       0.3653E-1    0.7493   
    9.580       -.6669E-3     1.054       0.3792E-1    0.7519   
    9.590       -.6233E-3     1.054       0.3954E-1    0.7545   
    9.600       -.5790E-3     1.054       0.4141E-1    0.7570   
    9.610       -.5361E-3     1.054       0.4357E-1    0.7594   
    9.620       -.4972E-3     1.054       0.4604E-1    0.7616   
    9.630       -.4651E-3     1.053       0.4885E-1    0.7636   
    9.640       -.4429E-3     1.053       0.5202E-1    0.7654   
    9.650       -.4324E-3     1.053       0.5555E-1    0.7667   
    9.660       -.4348E-3     1.053       0.5944E-1    0.7676   
    9.670       -.4492E-3     1.053       0.6362E-1    0.7678   
    9.680       -.4739E-3     1.053       0.6800E-1    0.7673   
    9.690       -.5061E-3     1.052       0.7242E-1    0.7658   
    9.700       -.5427E-3     1.052       0.7664E-1    0.7633   
    9.710       -.5812E-3     1.052       0.8037E-1    0.7598   
    9.720       -.6193E-3     1.052       0.8329E-1    0.7553   
    9.730       -.6557E-3     1.052       0.8509E-1    0.7501   
    9.740       -.6893E-3     1.052       0.8556E-1    0.7445   
    9.750       -.7197E-3     1.052       0.8463E-1    0.7389   
    9.760       -.7468E-3     1.052       0.8240E-1    0.7337   
    9.770       -.7707E-3     1.052       0.7909E-1    0.7293   
    9.780       -.7914E-3     1.051       0.7501E-1    0.7259   
    9.790       -.8093E-3     1.051       0.7049E-1    0.7234   
    9.800       -.8245E-3     1.051       0.6581E-1    0.7219   
    9.810       -.8375E-3     1.051       0.6118E-1    0.7213   
    9.820       -.8483E-3     1.051       0.5678E-1    0.7215   
    9.830       -.8573E-3     1.051       0.5267E-1    0.7222   
    9.840       -.8646E-3     1.051       0.4892E-1    0.7234   
    9.850       -.8704E-3     1.051       0.4553E-1    0.7249   
    9.860       -.8748E-3     1.051       0.4249E-1    0.7267   
    9.870       -.8780E-3     1.051       0.3978E-1    0.7287   
    9.880       -.8800E-3     1.051       0.3737E-1    0.7307   
    9.890       -.8810E-3     1.050       0.3524E-1    0.7329   
    9.900       -.8810E-3     1.050       0.3335E-1    0.7351   
    9.910       -.8801E-3     1.050       0.3168E-1    0.7373   
    9.920       -.8782E-3     1.050       0.3020E-1    0.7395   
    9.930       -.8754E-3     1.050       0.2889E-1    0.7417   
    9.940       -.8718E-3     1.050       0.2774E-1    0.7439   
    9.950       -.8672E-3     1.050       0.2672E-1    0.7461   
    9.960       -.8617E-3     1.050       0.2582E-1    0.7482   
    9.970       -.8552E-3     1.050       0.2503E-1    0.7503   
    9.980       -.8477E-3     1.050       0.2434E-1    0.7524   
    9.990       -.8390E-3     1.050       0.2374E-1    0.7545   
    10.00       -.8292E-3     1.049       0.2322E-1    0.7565   
# 
# 11/06/2019 at 12:27 YAMBO @ dufour [start]
# 11/06/2019 at 12:28                [end]
#  
# Timing   [Min/Max/Average]: 45s/45s/45s
#
# .-Input file : References/00_bse_00_bse.in
# | optics                         # [R OPT] Optics
# | bse                            # [R BSE] Bethe Salpeter Equation.
# | bsk                            # [R BSK] Bethe Salpeter Equation kernel
# | bss                            # [R BSS] Bethe Salpeter Equation solver
# | em1s                           # [R Xs] Static Inverse Dielectric Matrix
# | BoseTemp= 0.000000     eV      # Bosonic Temperature
# | X_Threads= 1                   # [OPENMP/X] Number of threads for response functions
# | DIP_Threads= 1                 # [OPENMP/X] Number of threads for dipoles
# | K_Threads= 1                   # [OPENMP/BSK] Number of threads for response functions
# | Chimod= "HARTREE"              # [X] IP/Hartree/ALDA/LRC/PF/BSfxc
# | BSEmod= "retarded"             # [BSE] resonant/retarded/coupling
# | BSKmod= "SEX"                  # [BSE] IP/Hartree/HF/ALDA/SEX
# | BSSmod= "d"                    # [BSS] (h)aydock/(d)iagonalization/(i)nversion/(t)ddft`
# | BSENGexx=  4559        RL      # [BSK] Exchange components
# | BSENGBlk= 111          RL      # [BSK] Screened interaction block size
# | #WehCpl                        # [BSK] eh interaction included also in coupling
# | % KfnQP_E
# |  3.500000 | 1.000000 | 1.000000 |        # [EXTQP BSK BSS] E parameters  (c/v) eV|adim|adim
# | %
# | % BEnRange
# |   0.00000 | 10.00000 | eV      # [BSS] Energy range
# | %
# | % BDmRange
# |   0.10000 |  0.10000 | eV      # [BSS] Damping range
# | %
# | BEnSteps= 1000                 # [BSS] Energy steps
# | % BLongDir
# | 0.1000E-4 | 0.000    | 0.000    |        # [BSS] [cc] Electric Field
# | %
# | % BSEBands
# |  1 | 2 |                       # [BSK] Bands range
# | %
# | WRbsWF                         # [BSS] Write to disk excitonic the WFs
# | % BndsRnXs
# |   1 | 20 |                     # [Xs] Polarization function bands
# | %
# | NGsBlkXs= 111          RL      # [Xs] Response block size
# | % DmRngeXs
# |   0.10000 |  0.10000 | eV      # [Xs] Damping range
# | %
# | % LongDrXs
# | 0.1000E-4 | 0.000    | 0.000    |        # [Xs] [cc] Electric Field
# | %
