#                                                           
# :::   :::   :::     ::::    ::::  :::::::::   ::::::::    
# :+:   :+: :+: :+:   +:+:+: :+:+:+ :+:    :+: :+:    :+:   
#  +:+ +:+ +:+   +:+  +:+ +:+:+ +:+ +:+    +:+ +:+    +:+   
#   +#++: +#++:++#++: +#+  +:+  +#+ +#++:++#+  +#+    +:+   
#    +#+  +#+     +#+ +#+       +#+ +#+    +#+ +#+    +#+   
#    #+#  #+#     #+# #+#       #+# #+#    #+# #+#    #+#   
#    ###  ###     ### ###       ### #########   ########    
#                                                           
#               Version 3.3.1 Revision 2078                 
#                http://www.yambo-code.org                  
#
# Absorption @ Q(1) [q->0 direction] :0.1000E-4  0.000     0.000   
#
#
# - Energies      are Teter 93(XC)
# - Wavefunctions are Teter 93(XC)
#
# - The Green`s function is resonant -
# - Using Shifted Grids -
# - [r,Vnl] *is* included -
#
#
#  E/ev[1]    eps /Im[2] eps /Re[3]
#
  0.00      0.176E+10  0.382E+10
 0.2005E-1  0.1785E+5  -.5721E+5
 0.4010E-1   4470.     -.1423E+5
 0.6015E-1   1994.     -6272.   
 0.8020E-1   1130.     -3486.   
 0.1003      731.7     -2198.   
 0.1203      516.9     -1498.   
 0.1404      388.7     -1077.   
 0.1604      306.6     -804.4   
 0.1805      251.2     -618.0   
 0.2005      212.5     -485.3   
 0.2206      184.6     -387.6   
 0.2406      164.1     -314.0   
    0.2607   148.7148  -257.2798
    0.2807   137.0826  -212.9609
    0.3008   128.1699  -177.9080
    0.3208   121.2584  -149.9549
    0.3409   115.8129  -127.5528
    0.3609   111.4210  -109.5549
    0.3810   107.7581   -95.0933
    0.4010   104.5658   -83.4895
    0.4211   101.6403   -74.1923
   0.44110   98.82774  -66.74701
   0.46115   96.01910  -60.77094
   0.48120   93.14784  -55.94021
   0.50125   90.18165  -51.98233
   0.52130   87.11961  -48.67361
   0.54135   83.98241  -45.83482
   0.56140   80.80526  -43.32721
   0.58145   77.62902  -41.04836
   0.60150   74.49603  -38.92763
   0.62155   71.44464  -36.91816
   0.64160   68.50627  -34.99223
   0.66165   65.70397  -33.13492
   0.68170   63.05322  -31.34112
   0.70175   60.56176  -29.61141
   0.72180   58.23140  -27.94883
   0.74185   56.05815  -26.35733
   0.76190   54.03540  -24.84053
   0.78195   52.15238  -23.40143
   0.80201   50.39874  -22.04070
   0.82206   48.76130  -20.75803
   0.84211   47.22816  -19.55146
   0.86216   45.78761  -18.41685
   0.88221   44.42897  -17.34966
   0.90226   43.14255  -16.34359
   0.92231   41.91966  -15.39176
   0.94236   40.75510  -14.48678
   0.96241   39.64403  -13.62168
   0.98246   38.58371  -12.78934
   1.00251   37.57390  -11.98405
   1.02256   36.61446  -11.20127
   1.04261   35.70656  -10.43741
   1.06266   34.85239   -9.69086
   1.08271   34.05313   -8.96165
   1.10276   33.31047   -8.25067
   1.12281   32.62474   -7.56019
   1.14286   31.99626   -6.89335
   1.16291   31.42371   -6.25320
   1.18296   30.90500   -5.64386
   1.20301   30.43708   -5.06863
   1.22306   30.01577   -4.53090
   1.24311   29.63657   -4.03347
   1.26316   29.29424   -3.57822
   1.28321   28.98306   -3.16671
   1.30326   28.69732   -2.79948
   1.32331   28.43095   -2.47647
   1.34336   28.17750   -2.19632
   1.36341   27.93165   -1.95737
   1.38346   27.68719   -1.75669
   1.40351   27.43940   -1.59090
   1.42356   27.18397   -1.45534
   1.44361   26.91775   -1.34542
   1.46366   26.63785   -1.25591
   1.48371   26.34272   -1.18197
   1.50376   26.03114   -1.11793
   1.52381   25.70363   -1.05881
   1.54386   25.36083   -1.00006
   1.56391   25.00420   -0.93728
   1.58396   24.63554   -0.86659
   1.60401   24.25748   -0.78448
   1.62406   23.87278   -0.68845
   1.64411   23.48464   -0.57625
   1.66416   23.09579   -0.44621
   1.68421   22.70968   -0.29733
   1.70426   22.32921   -0.12879
   1.72431   21.95784    0.05956
   1.74436   21.59855    0.26759
   1.76441   21.25436    0.49460
   1.78446   20.92798    0.73967
   1.80451   20.62230    1.00146
   1.82456   20.33939    1.27845
   1.84461   20.08175    1.56853
   1.86466   19.85146    1.86960
   1.88471   19.65027    2.17908
   1.90476   19.47951    2.49472
   1.92481   19.34037    2.81304
   1.94486   19.23346    3.13113
   1.96491   19.15944    3.44544
   1.98496   19.11778    3.75287
   2.00501   19.10819    4.05000
   2.02506   19.12977    4.33341
   2.04511   19.18076    4.60015
   2.06516   19.25942    4.84690
   2.08521   19.36332    5.07104
   2.10526   19.48957    5.27034
   2.12531   19.63497    5.44279
   2.14536   19.79661    5.58712
   2.16541   19.97108    5.70220
   2.18546   20.15493    5.78790
   2.20551   20.34506    5.84406
   2.22556   20.53861    5.87132
   2.24561   20.73241    5.86984
   2.26566   20.92385    5.84131
   2.28571   21.11110    5.78624
   2.30576   21.29143    5.70591
   2.32581   21.46296    5.60202
   2.34586   21.62355    5.47586
   2.36591   21.77182    5.32912
   2.38597   21.90589    5.16371
   2.40602   22.02434    4.98137
   2.42607   22.12634    4.78429
   2.44612   22.21082    4.57465
   2.46617   22.27705    4.35433
   2.48622   22.32466    4.12581
   2.50627   22.35349    3.89114
   2.52632   22.36330    3.65222
   2.54637   22.35440    3.41097
   2.56642   22.32673    3.16940
   2.58647   22.28079    2.92942
   2.60652   22.21739    2.69329
   2.62657   22.13719    2.46292
   2.64662   22.04150    2.23997
   2.66667   21.93124    2.02656
   2.68672   21.80837    1.82411
   2.70677   21.67432    1.63393
   2.72682   21.53152    1.45743
   2.74687   21.38170    1.29520
   2.76692   21.22730    1.14768
   2.78697   21.07053    1.01525
   2.80702   20.91372    0.89747
   2.82707   20.75857    0.79383
   2.84712   20.60755    0.70355
   2.86717   20.46193    0.62569
   2.88722   20.32363    0.55916
   2.90727   20.19443    0.50227
   2.92732   20.07460    0.45363
   2.94737   19.96580    0.41150
   2.96742   19.86836    0.37412
   2.98747   19.78282    0.33976
   3.00752   19.70951    0.30654
   3.02757   19.64794    0.27256
   3.04762   19.59834    0.23613
   3.06767   19.55978    0.19556
   3.08772   19.53185    0.14917
   3.10777   19.51316    0.09563
   3.12782   19.50281    0.03362
   3.14787   19.49960   -0.03796
   3.16792   19.50227   -0.12012
   3.18797   19.50894   -0.21353
   3.20802   19.51836   -0.31873
   3.22807   19.52878   -0.43601
   3.24812   19.53891   -0.56549
   3.26817   19.54713   -0.70703
   3.28822   19.55178   -0.86038
   3.30827   19.55189   -1.02507
   3.32832   19.54568   -1.20060
   3.34837   19.53256   -1.38629
   3.36842   19.51104   -1.58148
   3.38847   19.48028   -1.78535
   3.40852   19.43914   -1.99705
   3.42857   19.38672   -2.21554
   3.44862   19.32242   -2.43980
   3.46867   19.24513   -2.66856
   3.48872   19.15436   -2.90058
   3.50877   19.04952   -3.13428
   3.52882   18.93046   -3.36809
   3.54887   18.79708   -3.60033
   3.56892   18.64967   -3.82941
   3.58897   18.48844   -4.05361
   3.60902   18.31444   -4.27145
   3.62907   18.12868   -4.48184
   3.64912   17.93226   -4.68354
   3.66917   17.72661   -4.87587
   3.68922   17.51301   -5.05807
   3.70927   17.29255   -5.23001
   3.72932   17.06643   -5.39170
   3.74937   16.83589   -5.54315
   3.76942   16.60174   -5.68482
   3.78947   16.36469   -5.81687
   3.80952   16.12521   -5.93972
   3.82957   15.88400   -6.05365
   3.84962   15.64086   -6.15902
   3.86967   15.39644   -6.25568
   3.88972   15.15075   -6.34375
   3.90977   14.90441   -6.42336
   3.92982   14.65743   -6.49411
   3.94987   14.41066   -6.55595
   3.96993   14.16445   -6.60885
   3.98997   13.91932   -6.65285
   4.01003   13.67611   -6.68805
   4.03008   13.43552   -6.71476
   4.05013   13.19820   -6.73324
   4.07018   12.96484   -6.74416
   4.09023   12.73587   -6.74806
   4.11028   12.51174   -6.74557
   4.13033   12.29237   -6.73756
   4.15038   12.07840   -6.72463
   4.17043   11.86929   -6.70734
   4.19048   11.66533   -6.68657
   4.21053   11.46589   -6.66270
   4.23058   11.27083   -6.63609
   4.25063   11.07975   -6.60723
   4.27068   10.89267   -6.57641
   4.29073   10.70885   -6.54360
   4.31078   10.52819   -6.50897
   4.33083   10.35026   -6.47260
   4.35088   10.17499   -6.43447
   4.37093   10.00195   -6.39441
  4.390977   9.831274  -6.352343
  4.411028   9.662845  -6.308191
  4.431077   9.496538  -6.261922
  4.451128   9.332280  -6.213338
  4.471178   9.170186  -6.162440
  4.491229   9.010189  -6.109197
  4.511278   8.852393  -6.053549
  4.531328   8.696747  -5.995255
  4.551379   8.543267  -5.934517
  4.571429   8.392028  -5.871209
  4.591479   8.243104  -5.805257
  4.611529   8.096670  -5.736433
  4.631579   7.952771  -5.664941
  4.651629   7.811465  -5.590493
  4.671679   7.673143  -5.513065
  4.691730   7.537831  -5.432481
  4.711780   7.405856  -5.348937
  4.731830   7.277640  -5.262331
  4.751880   7.153446  -5.172807
  4.771930   7.033403  -5.080448
  4.791980   6.917985  -4.985585
  4.812030   6.807580  -4.888337
  4.832080   6.702227  -4.789101
  4.852130   6.602205  -4.688185
  4.872181   6.507777  -4.586169
  4.892231   6.418991  -4.483382
  4.912281   6.335847  -4.380200
  4.932331   6.258388  -4.277296
  4.952381   6.186413  -4.174939
  4.972431   6.119910  -4.073554
  4.992481   6.058623  -3.973649
  5.012532   6.002146  -3.875575
  5.032581   5.950388  -3.779598
  5.052632   5.902921  -3.686048
  5.072682   5.859394  -3.595116
  5.092732   5.819411  -3.506922
  5.112782   5.782660  -3.421618
  5.132832   5.748766  -3.339345
  5.152883   5.717401  -3.260133
  5.172932   5.688178  -3.183925
  5.192983   5.660791  -3.110682
  5.213033   5.635008  -3.040394
  5.233083   5.610372  -2.972911
  5.253133   5.586826  -2.908149
  5.273183   5.563931  -2.845887
  5.293233   5.541409  -2.786021
  5.313283   5.519193  -2.728348
  5.333333   5.496977  -2.672653
  5.353384   5.474669  -2.618647
  5.373434   5.452136  -2.565952
  5.393484   5.429372  -2.514288
  5.413534   5.406416  -2.463374
  5.433584   5.383272  -2.412910
  5.453634   5.360103  -2.362538
  5.473684   5.337196  -2.312135
  5.493734   5.314749  -2.261428
  5.513785   5.293086  -2.210347
  5.533835   5.272579  -2.158913
  5.553885   5.253401  -2.107074
  5.573935   5.235922  -2.054896
  5.593985   5.220488  -2.002616
  5.614036   5.207283  -1.950515
  5.634085   5.196508  -1.898823
  5.654136   5.188329  -1.847897
  5.674186   5.182772  -1.798111
  5.694236   5.179759  -1.749865
  5.714286   5.179290  -1.703497
  5.734336   5.181124  -1.659400
  5.754386   5.185036  -1.617914
  5.774436   5.190789  -1.579277
  5.794487   5.197916  -1.543735
  5.814537   5.206067  -1.511415
  5.834587   5.214805  -1.482452
  5.854637   5.223732  -1.456799
  5.874687   5.232382  -1.434420
  5.894737   5.240401  -1.415131
  5.914787   5.247416  -1.398762
  5.934837   5.253097  -1.385077
  5.954887   5.257196  -1.373723
  5.974937   5.259507  -1.364409
  5.994987   5.259805  -1.356789
  6.015038   5.258191  -1.350470
  6.035088   5.254390  -1.345144
  6.055138   5.248640  -1.340451
  6.075188   5.240940  -1.336108
  6.095238   5.231351  -1.331763
  6.115288   5.220015  -1.327203
  6.135339   5.207137  -1.322155
  6.155388   5.192905  -1.316493
  6.175439   5.177528  -1.309977
  6.195489   5.161176  -1.302448
  6.215539   5.144151  -1.293880
  6.235589   5.126706  -1.284145
  6.255640   5.109012  -1.273251
  6.275690   5.091322  -1.261154
  6.295739   5.073884  -1.247884
  6.315790   5.056929  -1.233569
  6.335840   5.040726  -1.218223
  6.355890   5.025311  -1.202033
  6.375940   5.010961  -1.185110
  6.395990   4.997768  -1.167603
  6.416040   4.985822  -1.149675
  6.436090   4.975259  -1.131489
  6.456141   4.966082  -1.113272
  6.476191   4.958486  -1.095158
  6.496241   4.952377  -1.077330
  6.516291   4.947762  -1.059969
  6.536341   4.944637  -1.043213
  6.556391   4.943076  -1.027308
  6.576441   4.943056  -1.012394
  6.596491   4.944450  -0.998690
  6.616541   4.947244  -0.986376
  6.636592   4.951385  -0.975666
  6.656642   4.956688  -0.966783
  6.676692   4.963175  -0.959946
  6.696742   4.970506  -0.955333
  6.716792   4.978575  -0.953183
  6.736842   4.987054  -0.953715
  6.756892   4.995663  -0.957056
  6.776943   5.004008  -0.963301
  6.796993   5.011795  -0.972586
  6.817043   5.018421  -0.984882
  6.837093   5.023623  -1.000106
  6.857143   5.026847  -1.018105
  6.877193   5.027746  -1.038652
  6.897243   5.025884  -1.061435
  6.917294   5.020936  -1.086015
  6.937343   5.012665  -1.111975
  6.957394   5.000896  -1.138819
  6.977444   4.985600  -1.166005
  6.997494   4.966759  -1.192991
  7.017544   4.944532  -1.219318
  7.037594   4.919128  -1.244478
  7.057645   4.890799  -1.268150
  7.077694   4.859920  -1.289952
  7.097744   4.826923  -1.309675
  7.117795   4.792151  -1.327175
  7.137845   4.756049  -1.342400
  7.157895   4.718936  -1.355312
  7.177945   4.681129  -1.366039
  7.197996   4.642894  -1.374666
  7.218045   4.604486  -1.381386
  7.238095   4.566109  -1.386356
  7.258145   4.527784  -1.389748
  7.278196   4.489659  -1.391721
  7.298246   4.451595  -1.392442
  7.318296   4.413740  -1.391963
  7.338346   4.376008  -1.390415
  7.358397   4.338372  -1.387803
  7.378446   4.300748  -1.384119
  7.398496   4.263175  -1.379352
  7.418547   4.225659  -1.373451
  7.438597   4.188170  -1.366374
  7.458647   4.150826  -1.358055
  7.478697   4.113718  -1.348446
  7.498747   4.076929  -1.337513
  7.518797   4.040616  -1.325239
  7.538847   4.004791  -1.311667
  7.558897   3.969790  -1.296825
  7.578948   3.935669  -1.280796
  7.598998   3.902441  -1.263694
  7.619048   3.870320  -1.245606
  7.639098   3.839287  -1.226655
  7.659149   3.809415  -1.207032
  7.679198   3.780838  -1.186841
  7.699248   3.753378  -1.166279
  7.719298   3.727116  -1.145433
  7.739348   3.702019  -1.124445
  7.759399   3.677922  -1.103395
  7.779449   3.654799  -1.082396
  7.799500   3.632528  -1.061499
  7.819549   3.611066  -1.040785
  7.839599   3.590308  -1.020237
  7.859649   3.570088  -0.999920
  7.879699   3.550474  -0.979717
  7.899750   3.531196  -0.959718
  7.919800   3.512341  -0.939825
  7.939850   3.493769  -0.920014
  7.959899   3.475497  -0.900211
  7.979950   3.457482  -0.880405
  8.000000   3.439718  -0.860482
# 
# YAMBO@petz x 001 CPUs * 03/27/2013  20:46 [start]
#                         03/27/2013  20:47 [end]
# 
# Cpu Timing [Min/Max/Average]: 01m-06s/01m-06s/01m-06s
#
# .-Input file : INPUTS/03_KERR_IP-RPA_len+AnHall
# | optics                       # [R OPT] Optics
# | bse                          # [R BSE] Bethe Salpeter Equation.
# | IP                           # [R   K] Independet Particles
# | ElecTemp=0.1000E-3     eV    # Electronic Temperature
# | BoseTemp=0.1000E-3     eV    # Bosonic Temperature
# | FFTGvecs= 1893         RL    # [FFT] Plane-waves
# | BSEmode= "causal"            # [BSE] resonant/causal/coupling
# | Gauge= "length"              # [BSE] Gauge (length|velocity). In metals length misses An-Hall
# | DrudeWBS= ( 4.800000 , 5.650000 )  eV  # [BSE] Drude plasmon
# | % BSEBands
# |   1 | 30 |                   # [BSK] Bands range
# | %
# | BSEClmns=  56                # [BSK] Kernel Columns
# | % BEnRange
# |  0.000000 | 8.000000 | eV    # [BSS] Energy range
# | %
# | % BDmRange
# |  0.300000 | 0.500000 | eV    # [BSS] Damping range
# | %
# | BEnSteps=  400               # [BSS] Energy steps
# | % BLongDir
# | 0.1000E-4 | 0.000    | 0.000    |        # [BSS] [cc] Electric Field
# | %
