#                                                           
#  /$$     /$$ /$$$$$$  /$$      /$$ /$$$$$$$   /$$$$$$     
# |  $$   /$$//$$__  $$| $$$    /$$$| $$__  $$ /$$__  $$    
#  \  $$ /$$/| $$  \ $$| $$$$  /$$$$| $$  \ $$| $$  \ $$    
#   \  $$$$/ | $$$$$$$$| $$ $$/$$ $$| $$$$$$$ | $$  | $$    
#    \  $$/  | $$__  $$| $$  $$$| $$| $$__  $$| $$  | $$    
#     | $$   | $$  | $$| $$\  $ | $$| $$  \ $$| $$  | $$    
#     | $$   | $$  | $$| $$ \/  | $$| $$$$$$$/|  $$$$$$/    
#     |__/   |__/  |__/|__/     |__/|_______/  \______/     
#                                                           
#              Version 3.3.1 Revision 2078                  
#               http://www.yambo-code.org                   
#
# Absorption @ Q(1) [q->0 direction] :0.1000E-4  0.000     0.000   
#
#
# - Energies      are Teter 93(XC)
# - Wavefunctions are Teter 93(XC)
#
# - The Green`s function is resonant -
# - Using Shifted Grids -
# - [r,Vnl] is *NOT* included -
#
#
#  E/ev[1]    eps /Im[2] eps /Re[3]
#
  0.00      0.176E+10  0.382E+10
 0.2005E-1  0.1785E+5  -.5718E+5
 0.4010E-1   4471.     -.1420E+5
 0.6015E-1   1996.     -6236.   
 0.8020E-1   1132.     -3450.   
 0.1003      735.0     -2161.   
 0.1203      521.2     -1461.   
 0.1404      394.2     -1040.   
 0.1604      313.5     -766.6   
 0.1805      259.8     -579.8   
 0.2005      222.9     -446.9   
 0.2206      196.9     -349.3   
 0.2406      178.5     -275.8   
    0.2607   165.2601  -219.6366
    0.2807   155.7962  -176.0995
    0.3008   149.0224  -142.1258
    0.3208   144.1652  -115.5562
    0.3409   140.6257   -94.8232
    0.3609   137.9357   -78.7575
    0.3810   135.7179   -66.4499
    0.4010   133.6703   -57.1743
    0.4211   131.5628   -50.3158
    0.4411   129.2278   -45.3515
    0.4612   126.5615   -41.8293
    0.4812   123.5179   -39.3627
    0.5013   120.1003   -37.6322
    0.5213   116.3527   -36.3673
    0.5414   112.3422   -35.3676
    0.5614   108.1559   -34.4793
    0.5815   103.8799   -33.5999
   0.60150   99.59927  -32.66425
   0.62155   95.38564  -31.64032
   0.64160   91.29948  -30.52015
   0.66165   87.38352  -29.31051
   0.68170   83.66906  -28.02755
   0.70175   80.17300  -26.69188
   0.72180   76.90141  -25.32570
   0.74185   73.85223  -23.95014
   0.76190   71.01755  -22.58268
   0.78195   68.38736  -21.23860
   0.80201   65.94553  -19.92905
   0.82206   63.67774  -18.66190
   0.84211   61.56812  -17.44206
   0.86216   59.60197  -16.27206
   0.88221   57.76461  -15.15226
   0.90226   56.04458  -14.08036
   0.92231   54.42953  -13.05370
   0.94236   52.91028  -12.06784
   0.96241   51.47952  -11.11769
   0.98246   50.13267  -10.19849
   1.00251   48.86669   -9.30585
   1.02256   47.67962   -8.43638
   1.04261   46.57109   -7.58851
   1.06266   45.54303   -6.76190
   1.08271   44.59498   -5.95801
   1.10276   43.72688   -5.18063
   1.12281   42.93896   -4.43365
   1.14286   42.22834   -3.72248
   1.16291   41.59215   -3.05238
   1.18296   41.02562   -2.42927
   1.20301   40.52203   -1.85800
   1.22306   40.07520   -1.34346
   1.24311   39.67591   -0.88930
   1.26316   39.31645   -0.49796
   1.28321   38.98643   -0.17039
   1.30326   38.67630    0.09341
   1.32331   38.37543    0.29533
   1.34336   38.07464    0.43876
   1.36341   37.76474    0.52880
   1.38346   37.43774    0.57242
   1.40351   37.08638    0.57743
   1.42356   36.70712    0.55229
   1.44361   36.29606    0.50683
   1.46366   35.85137    0.45002
   1.48371   35.37474    0.39073
   1.50376   34.86771    0.33740
   1.52381   34.33370    0.29683
   1.54386   33.77621    0.27529
   1.56391   33.20036    0.27755
   1.58396   32.61129    0.30740
   1.60401   32.01361    0.36798
   1.62406   31.41283    0.46100
   1.64411   30.81398    0.58785
   1.66416   30.22170    0.74880
   1.68421   29.64018    0.94416
   1.70426   29.07483    1.17336
   1.72431   28.52935    1.43558
   1.74436   28.00750    1.72887
   1.76441   27.51387    2.05192
   1.78446   27.05191    2.40213
   1.80451   26.62486    2.77684
   1.82456   26.23558    3.17283
   1.84461   25.88696    3.58657
   1.86466   25.58122    4.01468
   1.88471   25.31928    4.45281
   1.90476   25.10335    4.89689
   1.92481   24.93365    5.34302
   1.94486   24.81031    5.78620
   1.96491   24.73426    6.22244
   1.98496   24.70362    6.64710
   2.00501   24.71785    7.05587
   2.02506   24.77504    7.44356
   2.04511   24.87256    7.80713
   2.06516   25.00758    8.14212
   2.08521   25.17705    8.44543
   2.10526   25.37652    8.71361
   2.12531   25.60220    8.94436
   2.14536   25.84911    9.13626
   2.16541   26.11325    9.28841
   2.18546   26.38958    9.40025
   2.20551   26.67374    9.47208
   2.22556   26.96237    9.50484
   2.24561   27.25117    9.49950
   2.26566   27.53758    9.45777
   2.28571   27.81812    9.38066
   2.30576   28.09080    9.27007
   2.32581   28.35267    9.12769
   2.34586   28.60151    8.95462
   2.36591   28.83482    8.75328
   2.38597   29.05068    8.52537
   2.40602   29.24722    8.27274
   2.42607   29.42235    7.99769
   2.44612   29.57453    7.70281
   2.46617   29.70171    7.39067
   2.48622   29.80287    7.06401
   2.50627   29.87699    6.72556
   2.52632   29.92244    6.37887
   2.54637   29.93959    6.02724
   2.56642   29.92745    5.67415
   2.58647   29.88689    5.32349
   2.60652   29.81879    4.97874
   2.62657   29.72483    4.64348
   2.64662   29.60664    4.32105
   2.66667   29.46702    4.01432
   2.68672   29.30912    3.72574
   2.70677   29.13643    3.45708
   2.72682   28.95244    3.20958
   2.74687   28.75981    2.98396
   2.76692   28.56326    2.78025
   2.78697   28.36529    2.59766
   2.80702   28.16914    2.43556
   2.82707   27.97684    2.29273
   2.84712   27.79104    2.16755
   2.86717   27.61401    2.05861
   2.88722   27.44653    1.96436
   2.90727   27.29079    1.88289
   2.92732   27.14860    1.81262
   2.94737   27.02051    1.75162
   2.96742   26.90740    1.69792
   2.98747   26.81075    1.64947
   3.00752   26.73099    1.60398
   3.02757   26.66814    1.55926
   3.04762   26.62296    1.51274
   3.06767   26.59454    1.46209
   3.08772   26.58328    1.40484
   3.10777   26.58780    1.33847
   3.12782   26.60703    1.26098
   3.14787   26.63940    1.17007
   3.16792   26.68373    1.06386
   3.18797   26.73750    0.94058
   3.20802   26.79893    0.79881
   3.22807   26.86566    0.63738
   3.24812   26.93521    0.45534
   3.26817   27.00480    0.25199
  3.288      27.07     0.2704E-1
   3.30827   27.13488   -0.21957
   3.32832   27.18963   -0.48755
   3.34837   27.23383   -0.77643
   3.36842   27.26499   -1.08520
   3.38847   27.28060   -1.41274
   3.40852   27.27731   -1.75721
   3.42857   27.25360   -2.11653
   3.44862   27.20655   -2.48840
   3.46867   27.13518   -2.86986
   3.48872   27.03762   -3.25763
   3.50877   26.91374   -3.64846
   3.52882   26.76242   -4.03899
   3.54887   26.58499   -4.42561
   3.56892   26.38214   -4.80558
   3.58897   26.15550   -5.17543
   3.60902   25.90667   -5.53262
   3.62907   25.63822   -5.87574
   3.64912   25.35240   -6.20255
   3.66917   25.05181   -6.51259
   3.68922   24.73884   -6.80502
   3.70927   24.41601   -7.07981
   3.72932   24.08464   -7.33724
   3.74937   23.74697   -7.57765
   3.76942   23.40402   -7.80192
   3.78947   23.05702   -8.01052
   3.80952   22.70671   -8.20409
   3.82957   22.35359   -8.38282
   3.84962   21.99871   -8.54745
   3.86967   21.64222   -8.69770
   3.88972   21.28461   -8.83391
   3.90977   20.92711   -8.95594
   3.92982   20.56985   -9.06397
   3.94987   20.21397   -9.15770
   3.96993   19.86074   -9.23780
   3.98997   19.51076   -9.30405
   4.01003   19.16552   -9.35767
   4.03008   18.82589   -9.39863
   4.05013   18.49268   -9.42836
   4.07018   18.16672   -9.44796
   4.09023   17.84816   -9.45843
   4.11028   17.53776   -9.46101
   4.13033   17.23535   -9.45662
   4.15038   16.94092   -9.44680
   4.17043   16.65384   -9.43233
   4.19048   16.37369   -9.41433
   4.21053   16.09987   -9.39319
   4.23058   15.83173   -9.36958
   4.25063   15.56849   -9.34366
   4.27068   15.30951   -9.31598
   4.29073   15.05425   -9.28614
   4.31078   14.80221   -9.25395
   4.33083   14.55293   -9.21972
   4.35088   14.30597   -9.18255
   4.37093   14.06152   -9.14246
   4.39098   13.81923   -9.09937
   4.41103   13.57908   -9.05251
   4.43108   13.34121   -9.00201
   4.45113   13.10575   -8.94772
   4.47118   12.87299   -8.88925
   4.49123   12.64291   -8.82708
   4.51128   12.41564   -8.76035
   4.53133   12.19134   -8.68969
   4.55138   11.97023   -8.61480
   4.57143   11.75244   -8.53582
   4.59148   11.53808   -8.45265
   4.61153   11.32730   -8.36515
   4.63158   11.12021   -8.27365
   4.65163   10.91715   -8.17785
   4.67168   10.71821   -8.07774
   4.69173   10.52369   -7.97326
   4.71178   10.33395   -7.86464
   4.73183   10.14942   -7.75195
  4.751880   9.970289  -7.635294
  4.771930   9.796980  -7.514732
  4.791980   9.629847  -7.390889
  4.812030   9.469261  -7.263842
  4.832080   9.315441  -7.134117
  4.852130   9.168612  -7.002072
  4.872181   9.029036  -6.868360
  4.892231   8.896713  -6.733409
  4.912281   8.771685  -6.597877
  4.932331   8.653808  -6.462452
  4.952381   8.543013  -6.327590
  4.972431   8.438939  -6.193855
  4.992481   8.341364  -6.061441
  5.012532   8.249863  -5.931036
  5.032581   8.163857  -5.802898
  5.052632   8.083190  -5.677101
  5.072682   8.007167  -5.553926
  5.092732   7.935407  -5.433423
  5.112782   7.867481  -5.315378
  5.132832   7.803143  -5.199980
  5.152883   7.741964  -5.087009
  5.172932   7.683944  -4.976317
  5.192983   7.628551  -4.867809
  5.213033   7.575859  -4.761194
  5.233083   7.525739  -4.656475
  5.253133   7.478156  -4.553574
  5.273183   7.433065  -4.452384
  5.293233   7.390429  -4.352769
  5.313283   7.350143  -4.254752
  5.333333   7.312210  -4.158297
  5.353384   7.276689  -4.063277
  5.373434   7.243402  -3.969689
  5.393484   7.212447  -3.877608
  5.413534   7.183824  -3.786803
  5.433584   7.157389  -3.697354
  5.453634   7.133514  -3.609121
  5.473684   7.112032  -3.522111
  5.493734   7.093086  -3.436388
  5.513785   7.077013  -3.352030
  5.533835   7.063655  -3.269007
  5.553885   7.053402  -3.187430
  5.573935   7.046317  -3.107726
  5.593985   7.042508  -3.030032
  5.614036   7.041856  -2.954652
  5.634085   7.044600  -2.882008
  5.654136   7.050601  -2.812351
  5.674186   7.059620  -2.746254
  5.694236   7.071419  -2.683975
  5.714286   7.085793  -2.625871
  5.734336   7.102278  -2.572407
  5.754386   7.120334  -2.523705
  5.774436   7.139548  -2.479964
  5.794487   7.159441  -2.441309
  5.814537   7.179332  -2.407680
  5.834587   7.198766  -2.379043
  5.854637   7.217008  -2.355188
  5.874687   7.233696  -2.335929
  5.894737   7.248205  -2.320899
  5.914787   7.260401  -2.309707
  5.934837   7.269830  -2.301873
  5.954887   7.276251  -2.297017
  5.974937   7.279466  -2.294586
  5.994987   7.279214  -2.294106
  6.015038   7.275684  -2.295180
  6.035088   7.268773  -2.297231
  6.055138   7.258704  -2.299984
  6.075188   7.245322  -2.302857
  6.095238   7.229014  -2.305633
  6.115288   7.209733  -2.307885
  6.135339   7.187864  -2.309357
  6.155388   7.163544  -2.309628
  6.175439   7.136970  -2.308566
  6.195489   7.108420  -2.305920
  6.215539   7.078193  -2.301351
  6.235589   7.046621  -2.294854
  6.255640   7.014066  -2.286057
  6.275690   6.980838  -2.275039
  6.295739   6.947185  -2.261612
  6.315790   6.913626  -2.245827
  6.335840   6.880425  -2.227658
  6.355890   6.847967  -2.207148
  6.375940   6.816707  -2.184426
  6.395990   6.786746  -2.159678
  6.416040   6.758554  -2.133064
  6.436090   6.732487  -2.104741
  6.456141   6.708570  -2.075093
  6.476191   6.687128  -2.044280
  6.496241   6.668363  -2.012593
  6.516291   6.652498  -1.980408
  6.536341   6.639540  -1.947972
  6.556391   6.629676  -1.915694
  6.576441   6.622884  -1.883960
  6.596491   6.619316  -1.853088
  6.616541   6.618858  -1.823543
  6.636592   6.621634  -1.795702
  6.656642   6.627418  -1.769986
  6.676692   6.635958  -1.746858
  6.696742   6.647120  -1.726766
  6.716792   6.660540  -1.710062
  6.736842   6.675906  -1.697215
  6.756892   6.692661  -1.688587
  6.776943   6.710336  -1.684429
  6.796993   6.728268  -1.684943
  6.817043   6.745785  -1.690171
  6.837093   6.762300  -1.700176
  6.857143   6.776959  -1.714733
  6.877193   6.789192  -1.733660
  6.897243   6.798370  -1.756528
  6.917294   6.803906  -1.782717
  6.937343   6.805451  -1.811683
  6.957394   6.802560  -1.842881
  6.977444   6.795255  -1.875335
  6.997494   6.783266  -1.908514
  7.017544   6.766953  -1.941650
  7.037594   6.746288  -1.974098
  7.057645   6.721799  -2.005316
  7.077694   6.693934  -2.034849
  7.097744   6.663017  -2.062333
  7.117795   6.629593  -2.087478
  7.137845   6.594344  -2.110240
  7.157895   6.557574  -2.130644
  7.177945   6.519659  -2.148728
  7.197996   6.481084  -2.164610
  7.218045   6.442059  -2.178528
  7.238095   6.402866  -2.190686
  7.258145   6.363520  -2.201308
  7.278196   6.324111  -2.210560
  7.298246   6.284732  -2.218578
  7.318296   6.245264  -2.225585
  7.338346   6.205699  -2.231623
  7.358397   6.165942  -2.236719
  7.378446   6.125967  -2.240835
  7.398496   6.085693  -2.243961
  7.418547   6.045144  -2.245989
  7.438597   6.004396  -2.246764
  7.458647   5.963559  -2.246324
  7.478697   5.922685  -2.244505
  7.498747   5.881963  -2.241287
  7.518797   5.841565  -2.236682
  7.538847   5.801659  -2.230760
  7.558897   5.762575  -2.223503
  7.578948   5.724328  -2.215158
  7.598998   5.687096  -2.205838
  7.619048   5.650968  -2.195760
  7.639098   5.615997  -2.185106
  7.659149   5.582252  -2.174156
  7.679198   5.549705  -2.163095
  7.699248   5.518151  -2.152172
  7.719298   5.487486  -2.141541
  7.739348   5.457602  -2.131427
  7.759399   5.428312  -2.121905
  7.779449   5.399282  -2.112969
  7.799500   5.370480  -2.104669
  7.819549   5.341502  -2.097087
  7.839599   5.312230  -2.090066
  7.859649   5.282434  -2.083487
  7.879699   5.252011  -2.077239
  7.899750   5.220682  -2.071119
  7.919800   5.188541  -2.064914
  7.939850   5.155468  -2.058462
  7.959899   5.121293  -2.051482
  7.979950   5.086201  -2.043771
  8.000000   5.050324  -2.035151
# 
# YAMBO@petz x 001 CPUs * 03/27/2013  17:38 [start]
#                         03/27/2013  17:38 [end]
# 
# Cpu Timing [Min/Max/Average]: 05s/05s/05s
#
# .-Input file : INPUTS/02_IP-RPA
# | optics                       # [R OPT] Optics
# | bse                          # [R BSE] Bethe Salpeter Equation.
# | IP                           # [R   K] Independet Particles
# | ElecTemp=0.1000E-3     eV    # Electronic Temperature
# | BoseTemp=0.1000E-3     eV    # Bosonic Temperature
# | FFTGvecs= 1865         RL    # [FFT] Plane-waves
# | BSEmode= "causal"            # [BSE] resonant/causal/coupling
# | Gauge= "length"              # [BSE] Gauge (length|velocity). In metals length misses An-Hall
# | DrudeWBS= ( 4.800000 , 5.650000 )  eV  # [BSE] Drude plasmon
# | % BSEBands
# |   1 | 20 |                   # [BSK] Bands range
# | %
# | BSEClmns= 26                 # [BSK] Kernel Columns
# | % BEnRange
# |  0.000000 | 8.000000 | eV    # [BSS] Energy range
# | %
# | % BDmRange
# |  0.300000 | 0.500000 | eV    # [BSS] Damping range
# | %
# | BEnSteps=  400               # [BSS] Energy steps
# | % BLongDir
# | 0.1000E-4 | 0.000    | 0.000    |        # [BSS] [cc] Electric Field
# | %
