#                                                           
# :::   :::   :::     ::::    ::::  :::::::::   ::::::::    
# :+:   :+: :+: :+:   +:+:+: :+:+:+ :+:    :+: :+:    :+:   
#  +:+ +:+ +:+   +:+  +:+ +:+:+ +:+ +:+    +:+ +:+    +:+   
#   +#++: +#++:++#++: +#+  +:+  +#+ +#++:++#+  +#+    +:+   
#    +#+  +#+     +#+ +#+       +#+ +#+    +#+ +#+    +#+   
#    #+#  #+#     #+# #+#       #+# #+#    #+# #+#    #+#   
#    ###  ###     ### ###       ### #########   ########    
#                                                           
#               Version 3.3.1 Revision 2078                 
#                http://www.yambo-code.org                  
#
# Off-diagonal Absorption @ Q(1) [q->0 direction] : 1.000000  0.000000  0.000000
#
#
# - Energies      are Teter 93(XC)
# - Wavefunctions are Teter 93(XC)
#
# - The Green`s function is resonant -
# - Using the Velocity Gauge -
# - [r,Vnl] *is* included -
#
#
#  E/ev[1]    off /Im[2] off /Re[3]
#
    0.0000     0.0000   358.1415
 0.2005E-1  0.3687E-3   64.47   
 0.4010E-1  0.2124E-3   18.63   
 0.6015E-1  0.1461E-3   8.527   
 0.8020E-1  0.1080E-3   4.848   
 0.1003     0.8814E-4   3.118   
 0.1203     0.7307E-4   2.171   
 0.1404     0.6325E-4   1.598   
 0.1604     0.5631E-4   1.224   
 0.1805     0.4969E-4  0.9681   
 0.2005     0.4416E-4  0.7846   
 0.2206     0.3993E-4  0.6486   
 0.2406     0.3741E-4  0.5452   
 0.2607     0.3468E-4  0.4646   
 0.2807     0.3112E-4  0.4007   
 0.3008     0.2930E-4  0.3491   
 0.3208     0.2723E-4  0.3068   
 0.3409     0.2559E-4  0.2719   
 0.3609     0.2434E-4  0.2425   
 0.3810     0.2291E-4  0.2177   
 0.4010     0.2116E-4  0.1965   
 0.4211     0.2010E-4  0.1782   
 0.4411     0.2009E-4  0.1624   
 0.4612     0.1826E-4  0.1486   
 0.4812     0.1751E-4  0.1365   
 0.5013     0.1750E-4  0.1258   
 0.5213     0.1616E-4  0.1163   
 0.5414     0.1549E-4  0.1078   
 0.5614     0.1423E-4  0.1003   
 0.5815     0.1406E-4  0.9349E-1
 0.6015     0.1360E-4  0.8736E-1
 0.6216     0.1340E-4  0.8181E-1
 0.6416     0.1244E-4  0.7678E-1
 0.6617     0.1187E-4  0.7221E-1
 0.6817     0.1138E-4  0.6802E-1
 0.7018     0.1164E-4  0.6418E-1
 0.7218     0.1100E-4  0.6067E-1
 0.7419     0.1077E-4  0.5745E-1
 0.7619     0.1002E-4  0.5446E-1
 0.7820     0.1017E-4  0.5170E-1
 0.8020     0.9680E-5  0.4915E-1
 0.8221     0.9860E-5  0.4679E-1
 0.8421     0.9973E-5  0.4459E-1
 0.8622     0.9883E-5  0.4253E-1
 0.8822     0.1021E-4  0.4063E-1
 0.9023     0.1011E-4  0.3884E-1
 0.9223     0.1008E-4  0.3717E-1
 0.9424     0.9503E-5  0.3560E-1
 0.9624     0.1003E-4  0.3414E-1
 0.9825     0.9661E-5  0.3276E-1
  1.003     0.1024E-4  0.3147E-1
  1.023     0.9700E-5  0.3025E-1
  1.043     0.9511E-5  0.2910E-1
  1.063     0.9579E-5  0.2801E-1
  1.083     0.9501E-5  0.2698E-1
  1.103     0.9609E-5  0.2601E-1
  1.123     0.8993E-5  0.2509E-1
  1.143     0.9837E-5  0.2422E-1
  1.163     0.8714E-5  0.2339E-1
  1.183     0.8271E-5  0.2261E-1
  1.203     0.8376E-5  0.2186E-1
  1.223     0.8926E-5  0.2115E-1
  1.243     0.9153E-5  0.2047E-1
  1.263     0.9052E-5  0.1983E-1
  1.283     0.8165E-5  0.1921E-1
  1.303     0.8287E-5  0.1863E-1
  1.323     0.8167E-5  0.1807E-1
  1.343     0.8036E-5  0.1753E-1
  1.363     0.7989E-5  0.1702E-1
  1.383     0.8181E-5  0.1653E-1
  1.404     0.7768E-5  0.1606E-1
  1.424     0.7543E-5  0.1561E-1
  1.444     0.7795E-5  0.1519E-1
  1.464     0.8072E-5  0.1477E-1
  1.484     0.7844E-5  0.1438E-1
  1.504     0.7545E-5  0.1400E-1
  1.524     0.7251E-5  0.1363E-1
  1.544     0.7748E-5  0.1328E-1
  1.564     0.7828E-5  0.1294E-1
  1.584     0.7403E-5  0.1262E-1
  1.604     0.7570E-5  0.1230E-1
  1.624     0.7679E-5  0.1200E-1
  1.644     0.7396E-5  0.1171E-1
  1.664     0.7222E-5  0.1143E-1
  1.684     0.7325E-5  0.1116E-1
  1.704     0.7292E-5  0.1090E-1
  1.724     0.6928E-5  0.1065E-1
  1.744     0.7416E-5  0.1040E-1
  1.764     0.7089E-5  0.1017E-1
  1.784     0.7104E-5  0.9942E-2
  1.805     0.6918E-5  0.9725E-2
  1.825     0.6527E-5  0.9512E-2
  1.845     0.6615E-5  0.9307E-2
  1.865     0.6969E-5  0.9107E-2
  1.885     0.6787E-5  0.8915E-2
  1.905     0.6746E-5  0.8729E-2
  1.925     0.6658E-5  0.8549E-2
  1.945     0.6617E-5  0.8373E-2
  1.965     0.6288E-5  0.8204E-2
  1.985     0.6148E-5  0.8039E-2
  2.005     0.6257E-5  0.7880E-2
  2.025     0.5904E-5  0.7725E-2
  2.045     0.5862E-5  0.7574E-2
  2.065     0.6273E-5  0.7429E-2
  2.085     0.6067E-5  0.7287E-2
  2.105     0.5773E-5  0.7149E-2
  2.125     0.5937E-5  0.7015E-2
  2.145     0.6248E-5  0.6885E-2
  2.165     0.5845E-5  0.6759E-2
  2.185     0.5888E-5  0.6635E-2
  2.206     0.5951E-5  0.6516E-2
  2.226     0.5689E-5  0.6399E-2
  2.246     0.5839E-5  0.6286E-2
  2.266     0.5500E-5  0.6175E-2
  2.286     0.5461E-5  0.6067E-2
  2.306     0.5444E-5  0.5962E-2
  2.326     0.5853E-5  0.5861E-2
  2.346     0.5780E-5  0.5762E-2
  2.366     0.5421E-5  0.5664E-2
  2.386     0.5637E-5  0.5570E-2
  2.406     0.5533E-5  0.5478E-2
  2.426     0.5266E-5  0.5388E-2
  2.446     0.5230E-5  0.5300E-2
  2.466     0.5239E-5  0.5214E-2
  2.486     0.5128E-5  0.5131E-2
  2.506     0.5523E-5  0.5049E-2
  2.526     0.5410E-5  0.4970E-2
  2.546     0.5214E-5  0.4892E-2
  2.566     0.5190E-5  0.4816E-2
  2.586     0.5160E-5  0.4742E-2
  2.607     0.5227E-5  0.4670E-2
  2.627     0.4781E-5  0.4598E-2
  2.647     0.4863E-5  0.4530E-2
  2.667     0.5063E-5  0.4463E-2
  2.687     0.4933E-5  0.4397E-2
  2.707     0.4803E-5  0.4332E-2
  2.727     0.4954E-5  0.4269E-2
  2.747     0.4843E-5  0.4206E-2
  2.767     0.4955E-5  0.4147E-2
  2.787     0.4806E-5  0.4086E-2
  2.807     0.4446E-5  0.4029E-2
  2.827     0.4814E-5  0.3971E-2
  2.847     0.4719E-5  0.3917E-2
  2.867     0.4561E-5  0.3863E-2
  2.887     0.4700E-5  0.3809E-2
  2.907     0.4355E-5  0.3758E-2
  2.927     0.4667E-5  0.3706E-2
  2.947     0.4264E-5  0.3656E-2
  2.967     0.4519E-5  0.3607E-2
  2.987     0.4454E-5  0.3559E-2
  3.008     0.4637E-5  0.3512E-2
  3.028     0.4390E-5  0.3466E-2
  3.048     0.4405E-5  0.3420E-2
  3.068     0.4093E-5  0.3376E-2
  3.088     0.3988E-5  0.3333E-2
  3.108     0.4259E-5  0.3290E-2
  3.128     0.4243E-5  0.3248E-2
  3.148     0.4460E-5  0.3207E-2
  3.168     0.4620E-5  0.3166E-2
  3.188     0.4595E-5  0.3127E-2
  3.208     0.4184E-5  0.3088E-2
  3.228     0.4245E-5  0.3051E-2
  3.248     0.3948E-5  0.3013E-2
  3.268     0.4438E-5  0.2976E-2
  3.288     0.4201E-5  0.2941E-2
  3.308     0.4032E-5  0.2905E-2
  3.328     0.4085E-5  0.2871E-2
  3.348     0.4117E-5  0.2837E-2
  3.368     0.3889E-5  0.2803E-2
  3.388     0.4362E-5  0.2770E-2
  3.409     0.3994E-5  0.2738E-2
  3.429     0.4216E-5  0.2706E-2
  3.449     0.3919E-5  0.2675E-2
  3.469     0.4402E-5  0.2644E-2
  3.489     0.4121E-5  0.2614E-2
  3.509     0.4065E-5  0.2584E-2
  3.529     0.4007E-5  0.2555E-2
  3.549     0.3933E-5  0.2527E-2
  3.569     0.3594E-5  0.2499E-2
  3.589     0.3712E-5  0.2471E-2
  3.609     0.3791E-5  0.2444E-2
  3.629     0.3778E-5  0.2417E-2
  3.649     0.3436E-5  0.2391E-2
  3.669     0.3578E-5  0.2364E-2
  3.689     0.3507E-5  0.2339E-2
  3.709     0.3739E-5  0.2314E-2
  3.729     0.3386E-5  0.2289E-2
  3.749     0.3478E-5  0.2266E-2
  3.769     0.3710E-5  0.2243E-2
  3.789     0.3278E-5  0.2218E-2
  3.810     0.3243E-5  0.2195E-2
  3.830     0.3172E-5  0.2172E-2
  3.850     0.3165E-5  0.2150E-2
  3.870     0.2971E-5  0.2128E-2
  3.890     0.3266E-5  0.2106E-2
  3.910     0.3212E-5  0.2085E-2
  3.930     0.3242E-5  0.2063E-2
  3.950     0.3482E-5  0.2043E-2
  3.970     0.3318E-5  0.2022E-2
  3.990     0.3201E-5  0.2002E-2
  4.010     0.3157E-5  0.1983E-2
  4.030     0.3357E-5  0.1964E-2
  4.050     0.3237E-5  0.1945E-2
  4.070     0.3313E-5  0.1925E-2
  4.090     0.3207E-5  0.1907E-2
  4.110     0.3123E-5  0.1888E-2
  4.130     0.3208E-5  0.1870E-2
  4.150     0.3133E-5  0.1852E-2
  4.170     0.3005E-5  0.1835E-2
  4.190     0.3161E-5  0.1817E-2
  4.211     0.3045E-5  0.1800E-2
  4.231     0.3089E-5  0.1784E-2
  4.251     0.3114E-5  0.1767E-2
  4.271     0.3172E-5  0.1751E-2
  4.291     0.3163E-5  0.1734E-2
  4.311     0.3070E-5  0.1718E-2
  4.331     0.2992E-5  0.1703E-2
  4.351     0.3100E-5  0.1687E-2
  4.371     0.3056E-5  0.1672E-2
  4.391     0.3020E-5  0.1657E-2
  4.411     0.3084E-5  0.1642E-2
  4.431     0.2949E-5  0.1628E-2
  4.451     0.3067E-5  0.1613E-2
  4.471     0.2996E-5  0.1599E-2
  4.491     0.3081E-5  0.1585E-2
  4.511     0.3063E-5  0.1571E-2
  4.531     0.3036E-5  0.1557E-2
  4.551     0.2985E-5  0.1543E-2
  4.571     0.3063E-5  0.1530E-2
  4.591     0.3012E-5  0.1517E-2
  4.612     0.3014E-5  0.1504E-2
  4.632     0.3066E-5  0.1491E-2
  4.652     0.2960E-5  0.1478E-2
  4.672     0.2955E-5  0.1466E-2
  4.692     0.3003E-5  0.1453E-2
  4.712     0.3012E-5  0.1441E-2
  4.732     0.3009E-5  0.1429E-2
  4.752     0.2995E-5  0.1417E-2
  4.772     0.2940E-5  0.1406E-2
  4.792     0.3001E-5  0.1394E-2
  4.812     0.2933E-5  0.1383E-2
  4.832     0.2927E-5  0.1371E-2
  4.852     0.2889E-5  0.1360E-2
  4.872     0.2949E-5  0.1349E-2
  4.892     0.2883E-5  0.1338E-2
  4.912     0.2934E-5  0.1328E-2
  4.932     0.2911E-5  0.1317E-2
  4.952     0.2918E-5  0.1306E-2
  4.972     0.2931E-5  0.1296E-2
  4.992     0.2942E-5  0.1286E-2
  5.013     0.2938E-5  0.1276E-2
  5.033     0.2888E-5  0.1265E-2
  5.053     0.2856E-5  0.1255E-2
  5.073     0.2889E-5  0.1245E-2
  5.093     0.2915E-5  0.1236E-2
  5.113     0.2873E-5  0.1227E-2
  5.133     0.2871E-5  0.1217E-2
  5.153     0.2855E-5  0.1208E-2
  5.173     0.2818E-5  0.1198E-2
  5.193     0.2833E-5  0.1190E-2
  5.213     0.2826E-5  0.1180E-2
  5.233     0.2826E-5  0.1172E-2
  5.253     0.2808E-5  0.1163E-2
  5.273     0.2817E-5  0.1154E-2
  5.293     0.2836E-5  0.1145E-2
  5.313     0.2798E-5  0.1137E-2
  5.333     0.2811E-5  0.1129E-2
  5.353     0.2804E-5  0.1120E-2
  5.373     0.2847E-5  0.1113E-2
  5.393     0.2742E-5  0.1104E-2
  5.414     0.2760E-5  0.1096E-2
  5.434     0.2746E-5  0.1089E-2
  5.454     0.2726E-5  0.1080E-2
  5.474     0.2769E-5  0.1073E-2
  5.494     0.2744E-5  0.1065E-2
  5.514     0.2781E-5  0.1057E-2
  5.534     0.2790E-5  0.1050E-2
  5.554     0.2815E-5  0.1042E-2
  5.574     0.2784E-5  0.1035E-2
  5.594     0.2769E-5  0.1028E-2
  5.614     0.2775E-5  0.1021E-2
  5.634     0.2745E-5  0.1014E-2
  5.654     0.2707E-5  0.1007E-2
  5.674     0.2773E-5  0.9995E-3
  5.694     0.2749E-5  0.9925E-3
  5.714     0.2753E-5  0.9855E-3
  5.734     0.2771E-5  0.9794E-3
  5.754     0.2719E-5  0.9725E-3
  5.774     0.2718E-5  0.9657E-3
  5.794     0.2701E-5  0.9591E-3
  5.815     0.2756E-5  0.9523E-3
  5.835     0.2757E-5  0.9464E-3
  5.855     0.2717E-5  0.9401E-3
  5.875     0.2713E-5  0.9335E-3
  5.895     0.2819E-5  0.9274E-3
  5.915     0.2765E-5  0.9211E-3
  5.935     0.2732E-5  0.9151E-3
  5.955     0.2718E-5  0.9092E-3
  5.975     0.2701E-5  0.9031E-3
  5.995     0.2729E-5  0.8969E-3
  6.015     0.2710E-5  0.8912E-3
  6.035     0.2702E-5  0.8855E-3
  6.055     0.2685E-5  0.8798E-3
  6.075     0.2691E-5  0.8741E-3
  6.095     0.2738E-5  0.8686E-3
  6.115     0.2788E-5  0.8629E-3
  6.135     0.2733E-5  0.8574E-3
  6.155     0.2730E-5  0.8519E-3
  6.175     0.2689E-5  0.8464E-3
  6.195     0.2695E-5  0.8410E-3
  6.216     0.2779E-5  0.8358E-3
  6.236     0.2729E-5  0.8307E-3
  6.256     0.2694E-5  0.8254E-3
  6.276     0.2682E-5  0.8202E-3
  6.296     0.2596E-5  0.8152E-3
  6.316     0.2688E-5  0.8102E-3
  6.336     0.2617E-5  0.8052E-3
  6.356     0.2615E-5  0.8000E-3
  6.376     0.2596E-5  0.7954E-3
  6.396     0.2597E-5  0.7903E-3
  6.416     0.2618E-5  0.7855E-3
  6.436     0.2605E-5  0.7809E-3
  6.456     0.2643E-5  0.7760E-3
  6.476     0.2610E-5  0.7710E-3
  6.496     0.2605E-5  0.7667E-3
  6.516     0.2647E-5  0.7619E-3
  6.536     0.2537E-5  0.7575E-3
  6.556     0.2557E-5  0.7529E-3
  6.576     0.2414E-5  0.7485E-3
  6.596     0.2511E-5  0.7442E-3
  6.617     0.2460E-5  0.7399E-3
  6.637     0.2558E-5  0.7352E-3
  6.657     0.2603E-5  0.7310E-3
  6.677     0.2599E-5  0.7268E-3
  6.697     0.2576E-5  0.7226E-3
  6.717     0.2547E-5  0.7181E-3
  6.737     0.2519E-5  0.7141E-3
  6.757     0.2553E-5  0.7101E-3
  6.777     0.2599E-5  0.7059E-3
  6.797     0.2577E-5  0.7016E-3
  6.817     0.2447E-5  0.6976E-3
  6.837     0.2613E-5  0.6936E-3
  6.857     0.2584E-5  0.6900E-3
  6.877     0.2572E-5  0.6860E-3
  6.897     0.2613E-5  0.6819E-3
  6.917     0.2580E-5  0.6782E-3
  6.937     0.2392E-5  0.6745E-3
  6.957     0.2419E-5  0.6706E-3
  6.977     0.2567E-5  0.6669E-3
  6.997     0.2485E-5  0.6630E-3
  7.018     0.2536E-5  0.6594E-3
  7.038     0.2546E-5  0.6559E-3
  7.058     0.2516E-5  0.6523E-3
  7.078     0.2451E-5  0.6487E-3
  7.098     0.2513E-5  0.6451E-3
  7.118     0.2447E-5  0.6414E-3
  7.138     0.2420E-5  0.6381E-3
  7.158     0.2402E-5  0.6347E-3
  7.178     0.2450E-5  0.6312E-3
  7.198     0.2323E-5  0.6279E-3
  7.218     0.2361E-5  0.6243E-3
  7.238     0.2397E-5  0.6208E-3
  7.258     0.2311E-5  0.6175E-3
  7.278     0.2320E-5  0.6143E-3
  7.298     0.2336E-5  0.6112E-3
  7.318     0.2321E-5  0.6078E-3
  7.338     0.2299E-5  0.6048E-3
  7.358     0.2455E-5  0.6012E-3
  7.378     0.2424E-5  0.5983E-3
  7.398     0.2446E-5  0.5952E-3
  7.419     0.2455E-5  0.5920E-3
  7.439     0.2373E-5  0.5889E-3
  7.459     0.2370E-5  0.5859E-3
  7.479     0.2449E-5  0.5827E-3
  7.499     0.2405E-5  0.5798E-3
  7.519     0.2362E-5  0.5769E-3
  7.539     0.2298E-5  0.5736E-3
  7.559     0.2279E-5  0.5709E-3
  7.579     0.2277E-5  0.5680E-3
  7.599     0.2368E-5  0.5651E-3
  7.619     0.2415E-5  0.5621E-3
  7.639     0.2351E-5  0.5594E-3
  7.659     0.2319E-5  0.5565E-3
  7.679     0.2279E-5  0.5536E-3
  7.699     0.2178E-5  0.5510E-3
  7.719     0.2194E-5  0.5483E-3
  7.739     0.2252E-5  0.5454E-3
  7.759     0.2322E-5  0.5428E-3
  7.779     0.2284E-5  0.5400E-3
  7.799     0.2297E-5  0.5374E-3
  7.820     0.2284E-5  0.5348E-3
  7.840     0.2410E-5  0.5320E-3
  7.860     0.2190E-5  0.5295E-3
  7.880     0.2313E-5  0.5268E-3
  7.900     0.2257E-5  0.5241E-3
  7.920     0.2138E-5  0.5217E-3
  7.940     0.2283E-5  0.5191E-3
  7.960     0.2291E-5  0.5165E-3
  7.980     0.2302E-5  0.5142E-3
  8.000     0.2166E-5  0.5117E-3
# 
# YAMBO@petz x 001 CPUs * 03/27/2013  17:58 [start]
#                         03/27/2013  17:58 [end]
# 
# Cpu Timing [Min/Max/Average]: 18s/18s/18s
#
# .-Input file : INPUTS/03_KERR_IP-RPA_vel
# | optics                       # [R OPT] Optics
# | bse                          # [R BSE] Bethe Salpeter Equation.
# | IP                           # [R   K] Independet Particles
# | ElecTemp=0.1000E-3     eV    # Electronic Temperature
# | BoseTemp=0.1000E-3     eV    # Bosonic Temperature
# | FFTGvecs= 1865         RL    # [FFT] Plane-waves
# | BSEmode= "causal"            # [BSE] resonant/causal/coupling
# | Gauge= "velocity"            # [BSE] Gauge (length|velocity). In metals length misses An-Hall
# | DrudeWBS= ( 4.800000 , 5.650000 )  eV  # [BSE] Drude plasmon
# | % BSEBands
# |   1 | 20 |                   # [BSK] Bands range
# | %
# | BSEClmns= 26                 # [BSK] Kernel Columns
# | % BEnRange
# |  0.000000 | 8.000000 | eV    # [BSS] Energy range
# | %
# | % BDmRange
# |  0.300000 | 0.500000 | eV    # [BSS] Damping range
# | %
# | BEnSteps=  400               # [BSS] Energy steps
# | % BLongDir
# |  1.000000 | 0.000000 | 0.000000 |        # [BSS] [cc] Electric Field
# | %
