#  ____  ____     _       ____    ____  ______      ___     
# |_  _||_  _|   / \     |_   \  /   _||_   _ \   ."   `.   
#   \ \  / /    / _ \      |   \/   |    | |_) | /  .-.  \  
#    \ \/ /    / ___ \     | |\  /| |    |  __". | |   | |  
#    _|  |_  _/ /   \ \_  _| |_\/_| |_  _| |__) |\  `-"  /  
#   |______||____| |____||_____||_____||_______/  `.___."   
#                                                           
#              GPL Version 3.1.2 Revision 297               
#                http://www.yambo-code.org                  
#
# Absorption @ IQ 1 :0.1000E-4  0.000     0.000
#
# - The gauge is transverse + [r,Vnl] -
#
# BSK|Identifier              :3799
#    |Dimension               :2304
#    |Bands                   :2 - 7
#    |Exchange           [res]: yes
#    |Correlation        [res]: yes
#    |Kernel`s coupling       : no
#    |Exchange           [cpl]: no
#    |Correlation        [cpl]: no
#    |ALDA kernel in R-space  : no
#    |RL vectors    [exchange]:773
#    |RL vectors [correlation]:51
#    |E/h energy range    [ev]:-1.000000 - -1.000000
#    |Coupling range     [o/o]: 100.0000 -  100.0000
#  W |Interaction is diagonal : no
#    |Matrix size             :51
#    |Bands                   :1 - 10
#    |e/h energy range    [ev]:-1.000000 - -1.000000
#    |Poles              [o/o]: 100.0000
#    |Rl vectors in the sum   :773
#    |[r,Vnl] included        : yes
#    |Longitudinal Gauge      : no
#    |Field direction         :0.1000E-4  0.000000  0.000000
#    |Columbian Cutoff        :none
#    |xc-Kernel               :none
# RIM|RL components      [col]:0
#    |Random points      [col]:0
#
# Haydock|Accuracy (requested) [o/o]: -0.02000
#        |Accuracy (reached)   [o/o]:  0.01931
#        |Iteration                 :34
#
#  E/ev       e/Im       e/Re       eo/Im      eo/Re      e`/Im      e`/Re
#
  7.500     0.1796E-1   1.751     0.6105E-2   1.458     0.1796E-1   1.751   
  7.559     0.1840E-1   1.758     0.6195E-2   1.460     0.1840E-1   1.758   
  7.617     0.1886E-1   1.765     0.6286E-2   1.463     0.1886E-1   1.765   
  7.676     0.1934E-1   1.772     0.6379E-2   1.465     0.1934E-1   1.772   
  7.734     0.1983E-1   1.780     0.6474E-2   1.467     0.1983E-1   1.780   
  7.793     0.2034E-1   1.788     0.6571E-2   1.470     0.2034E-1   1.788   
  7.851     0.2087E-1   1.795     0.6669E-2   1.473     0.2087E-1   1.795   
  7.910     0.2142E-1   1.803     0.6770E-2   1.475     0.2142E-1   1.803   
  7.968     0.2199E-1   1.812     0.6873E-2   1.478     0.2199E-1   1.812   
  8.027     0.2258E-1   1.820     0.6977E-2   1.480     0.2258E-1   1.820   
  8.085     0.2320E-1   1.829     0.7084E-2   1.483     0.2320E-1   1.829   
  8.144     0.2384E-1   1.838     0.7193E-2   1.486     0.2384E-1   1.838   
  8.202     0.2451E-1   1.847     0.7304E-2   1.488     0.2451E-1   1.847   
  8.261     0.2521E-1   1.856     0.7418E-2   1.491     0.2521E-1   1.856   
  8.319     0.2593E-1   1.865     0.7534E-2   1.494     0.2593E-1   1.865   
  8.378     0.2669E-1   1.875     0.7652E-2   1.497     0.2669E-1   1.875   
  8.436     0.2747E-1   1.885     0.7773E-2   1.500     0.2747E-1   1.885   
  8.495     0.2830E-1   1.896     0.7896E-2   1.502     0.2830E-1   1.896   
  8.554     0.2916E-1   1.906     0.8023E-2   1.505     0.2916E-1   1.906   
  8.612     0.3006E-1   1.917     0.8151E-2   1.508     0.3006E-1   1.917   
  8.671     0.3100E-1   1.928     0.8283E-2   1.511     0.3100E-1   1.928   
  8.729     0.3198E-1   1.939     0.8418E-2   1.514     0.3198E-1   1.939   
  8.788     0.3301E-1   1.951     0.8555E-2   1.518     0.3301E-1   1.951   
  8.846     0.3410E-1   1.963     0.8696E-2   1.521     0.3410E-1   1.963   
  8.905     0.3523E-1   1.976     0.8840E-2   1.524     0.3523E-1   1.976   
    8.9632     0.0364     1.9887     0.0090     1.5270     0.0364     1.9887
    9.0217     0.0377     2.0020     0.0091     1.5303     0.0377     2.0020
    9.0803     0.0390     2.0157     0.0093     1.5336     0.0390     2.0157
    9.1388     0.0404     2.0298     0.0094     1.5369     0.0404     2.0298
    9.1973     0.0419     2.0443     0.0096     1.5403     0.0419     2.0443
    9.2559     0.0434     2.0594     0.0098     1.5438     0.0434     2.0594
    9.3144     0.0450     2.0750     0.0099     1.5473     0.0450     2.0750
   9.37291    0.04676    2.09107    0.01012    1.55079    0.04676    2.09107
   9.43144    0.04859    2.10774    0.01030    1.55438    0.04859    2.10774
   9.48997    0.05053    2.12501    0.01048    1.55802    0.05053    2.12501
   9.54850    0.05259    2.14292    0.01066    1.56171    0.05259    2.14292
   9.60702    0.05478    2.16151    0.01085    1.56546    0.05478    2.16151
   9.66555    0.05711    2.18081    0.01105    1.56926    0.05711    2.18081
   9.72408    0.05960    2.20088    0.01125    1.57312    0.05960    2.20088
   9.78261    0.06225    2.22175    0.01146    1.57704    0.06225    2.22175
   9.84114    0.06508    2.24350    0.01167    1.58102    0.06508    2.24350
   9.89967    0.06812    2.26616    0.01189    1.58506    0.06812    2.26616
   9.95819    0.07138    2.28982    0.01211    1.58916    0.07138    2.28982
  10.01672    0.07488    2.31453    0.01234    1.59334    0.07488    2.31453
  10.07525    0.07864    2.34038    0.01257    1.59757    0.07864    2.34038
  10.13378    0.08271    2.36745    0.01281    1.60188    0.08271    2.36745
  10.19231    0.08710    2.39584    0.01306    1.60625    0.08710    2.39584
  10.25084    0.09187    2.42565    0.01332    1.61069    0.09187    2.42565
  10.30937    0.09704    2.45699    0.01358    1.61522    0.09704    2.45699
  10.36789    0.10267    2.49000    0.01385    1.61981    0.10267    2.49000
  10.42642    0.10882    2.52481    0.01413    1.62449    0.10882    2.52481
  10.48495    0.11555    2.56160    0.01442    1.62924    0.11555    2.56160
  10.54348    0.12294    2.60054    0.01471    1.63408    0.12294    2.60054
  10.60201    0.13108    2.64183    0.01501    1.63900    0.13108    2.64183
  10.66053    0.14007    2.68572    0.01533    1.64402    0.14007    2.68572
  10.71906    0.15005    2.73245    0.01565    1.64911    0.15005    2.73245
  10.77759    0.16116    2.78234    0.01598    1.65431    0.16116    2.78234
  10.83612    0.17358    2.83573    0.01633    1.65960    0.17358    2.83573
  10.89465    0.18754    2.89301    0.01668    1.66498    0.18754    2.89301
  10.95318    0.20328    2.95465    0.01705    1.67048    0.20328    2.95465
  11.01171    0.22114    3.02117    0.01743    1.67607    0.22114    3.02117
  11.07023    0.24152    3.09321    0.01782    1.68177    0.24152    3.09321
  11.12876    0.26491    3.17148    0.01822    1.68759    0.26491    3.17148
  11.18729    0.29194    3.25686    0.01864    1.69352    0.29194    3.25686
  11.24582    0.32340    3.35037    0.01907    1.69957    0.32340    3.35037
  11.30435    0.36033    3.45323    0.01952    1.70575    0.36033    3.45323
  11.36288    0.40405    3.56691    0.01998    1.71205    0.40405    3.56691
  11.42140    0.45633    3.69317    0.02046    1.71848    0.45633    3.69317
  11.47993    0.51953    3.83414    0.02096    1.72506    0.51953    3.83414
  11.53846    0.59686    3.99242    0.02148    1.73177    0.59686    3.99242
  11.59699    0.69278    4.17110    0.02202    1.73864    0.69278    4.17110
  11.65552    0.81359    4.37389    0.02258    1.74565    0.81359    4.37389
  11.71405    0.96833    4.60508    0.02316    1.75283    0.96833    4.60508
  11.77258    1.17037    4.86931    0.02376    1.76016    1.17037    4.86931
  11.83110    1.43974    5.17077    0.02439    1.76768    1.43974    5.17077
  11.88963    1.80709    5.51100    0.02505    1.77537    1.80709    5.51100
  11.94816    2.31965    5.88318    0.02573    1.78324    2.31965    5.88318
  12.00669    3.04895    6.25793    0.02645    1.79131    3.04895    6.25793
  12.06522    4.09442    6.55017    0.02719    1.79958    4.09442    6.55017
  12.12375    5.55421    6.55198    0.02797    1.80807    5.55421    6.55198
  12.18227    7.37813    5.85593    0.02878    1.81677    7.37813    5.85593
  12.24080    9.02766    4.00529    0.02964    1.82571    9.02766    4.00529
  12.29933    9.45989    1.24345    0.03053    1.83487    9.45989    1.24345
  12.35786    8.32068   -1.17366    0.03147    1.84431    8.32068   -1.17366
  12.41639    6.49986   -2.41673    0.03246    1.85400    6.49986   -2.41673
  12.47492    4.85080   -2.71075    0.03349    1.86397    4.85080   -2.71075
  12.53344    3.61994   -2.53443    0.03459    1.87423    3.61994   -2.53443
  12.59197    2.75520   -2.18743    0.03574    1.88480    2.75520   -2.18743
  12.65050    2.15222   -1.80510    0.03695    1.89569    2.15222   -1.80510
  12.70903    1.72660   -1.43904    0.03824    1.90692    1.72660   -1.43904
  12.76756    1.42084   -1.10514    0.03960    1.91852    1.42084   -1.10514
  12.82609    1.19745   -0.80523    0.04105    1.93050    1.19745   -0.80523
  12.88462    1.03214   -0.53607    0.04258    1.94287    1.03214   -0.53607
  12.94314    0.90901   -0.29298    0.04422    1.95568    0.90901   -0.29298
  13.00167    0.81760   -0.07115    0.04596    1.96894    0.81760   -0.07115
  13.06020    0.75100    0.13381    0.04783    1.98269    0.75100    0.13381
  13.11873    0.70478    0.32591    0.04982    1.99696    0.70478    0.32591
  13.17726    0.67628    0.50870    0.05197    2.01179    0.67628    0.50870
  13.23579    0.66435    0.68542    0.05428    2.02721    0.66435    0.68542
  13.29431    0.66915    0.85909    0.05678    2.04326    0.66915    0.85909
  13.35284    0.69231    1.03249    0.05949    2.06002    0.69231    1.03249
  13.41137    0.73727    1.20810    0.06244    2.07750    0.73727    1.20810
  13.46990    0.80991    1.38779    0.06565    2.09581    0.80991    1.38779
  13.52843    0.91967    1.57190    0.06918    2.11499    0.91967    1.57190
  13.58696    1.08105    1.75709    0.07306    2.13513    1.08105    1.75709
  13.64548    1.31511    1.93141    0.07737    2.15632    1.31511    1.93141
  13.70401    1.64796    2.06380    0.08216    2.17866    1.64796    2.06380
  13.76254    2.09667    2.08676    0.08753    2.20228    2.09667    2.08676
  13.82107    2.62135    1.88808    0.09360    2.22732    2.62135    1.88808
  13.87960    3.05060    1.38010    0.10049    2.25393    3.05060    1.38010
  13.93813    3.13962    0.68078    0.10841    2.28231    3.13962    0.68078
  13.99666    2.86121    0.09950    0.11760    2.31267    2.86121    0.09950
  14.05518    2.44509   -0.20702    0.12837    2.34528    2.44510   -0.20702
  14.11371    2.07292   -0.31870    0.14116    2.38042    2.07292   -0.31871
  14.17224    1.76673   -0.34855    0.15659    2.41843    1.76672   -0.34856
  14.23077    1.49158   -0.32880    0.17548    2.45967    1.49156   -0.32880
  14.28930    1.24725   -0.25107    0.19906    2.50448    1.24724   -0.25105
  14.34783    1.05376   -0.12627    0.22906    2.55313    1.05377   -0.12624
  14.40635    0.91738    0.02192    0.26805    2.60549    0.91741    0.02194
  14.46488    0.83281    0.17571    0.31977    2.66066    0.83287    0.17572
  14.52341    0.79356    0.32490    0.38947    2.71571    0.79364    0.32485
  14.58194    0.79610    0.46166    0.48367    2.76339    0.79616    0.46152
  14.64047    0.83856    0.57499    0.60717    2.78820    0.83846    0.57471
  14.69900    0.91375    0.64716    0.75312    2.76369    0.91320    0.64694
  14.75752    0.99738    0.66046    0.88523    2.66467    0.99643    0.66112
  14.81605    1.04995    0.62073    0.94138    2.50764    1.05031    0.62278
  14.87458    1.05081    0.56368    0.89636    2.36637    1.05402    0.56431
  14.93311    1.00947    0.51828    0.79809    2.29972    1.01179    0.51450
  14.99164    0.93720    0.49936    0.70670    2.30382    0.93419    0.49504
  15.05017    0.85085    0.52246    0.64884    2.34606    0.84511    0.52298
  15.10870    0.77747    0.58900    0.62397    2.39688    0.77424    0.59434
  15.16722    0.73592    0.68432    0.61645    2.43907    0.73807    0.69106
  15.22575    0.73309    0.79174    0.60582    2.47421    0.74088    0.79544
  15.28428    0.77111    0.89709    0.58497    2.51971    0.78152    0.89278
  15.34281    0.85046    0.98500    0.56486    2.58809    0.85476    0.97020
  15.40134    0.96545    1.03564    0.55845    2.67812    0.95198    1.01949
  15.45987    1.09623    1.03084    0.57187    2.78386    1.06929    1.03563
  15.51839    1.21418    0.96887    0.60743    2.90118    1.20454    1.00026
  15.57692    1.29981    0.85914    0.66755    3.02819    1.32588    0.88379
  15.63545    1.32997    0.70863    0.75670    3.16383    1.36338    0.69703
  15.69398    1.27255    0.55261    0.88264    3.30605    1.27912    0.52170
  15.75251    1.13896    0.45480    1.05689    3.44895    1.12166    0.43467
  15.81104    0.98696    0.44303    1.29431    3.57839    0.96481    0.44167
  15.86957    0.86292    0.49776    1.60794    3.66471    0.84736    0.50930
  15.92809    0.78293    0.58907    1.99297    3.65847    0.77758    0.60644
  15.98662    0.74756    0.69575    2.40121    3.50684    0.75312    0.71342
  16.04515    0.75468    0.80445    2.74291    3.20436    0.77094    0.81699
  16.10368    0.80370    0.90373    2.95321    2.81592    0.82819    0.90395
  16.16221    0.89361    0.97833    3.03517    2.41213    0.91690    0.95836
  16.22074    1.01489    1.00729    3.01255    2.02262    1.01701    0.96852
  16.27926    1.13945    0.97455    2.88959    1.65997    1.10430    0.94285
  16.33779    1.23048    0.89241    2.65624    1.36024    1.17791    0.90362
  16.39632    1.28055    0.79645    2.34268    1.18862    1.25847    0.84860
  16.45485    1.31261    0.69671    2.03296    1.16984    1.34221    0.74404
  16.51338    1.32581    0.57074    1.79716    1.26512    1.37696    0.57387
  16.57191    1.28089    0.42061    1.66102    1.41802    1.30933    0.38790
  16.63043    1.15932    0.29798    1.62385    1.58206    1.15508    0.26409
  16.68896    0.99852    0.24754    1.67342    1.72008    0.97868    0.23052
  16.74749    0.84776    0.26680    1.78593    1.80171    0.82748    0.26533
  16.80602    0.73112    0.32987    1.92698    1.81215    0.71644    0.33764
  16.86455    0.65214    0.41409    2.06772    1.75403    0.64425    0.42624
  16.92308    0.60729    0.50569    2.18578    1.62880    0.60604    0.51922
  16.98161    0.59305    0.59663    2.24358    1.44573    0.59827    0.60931
  17.04013    0.60779    0.68034    2.21151    1.25387    0.61936    0.68957
  17.09866    0.65073    0.74804    2.11656    1.10981    0.66753    0.75000
  17.15719    0.71763    0.78620    2.01071    1.01430    0.73505    0.77639
  17.21572    0.79257    0.77924    1.90183    0.93425    0.80048    0.75706
  17.27425    0.84360    0.72472    1.76248    0.87051    0.83210    0.70090
  17.33278    0.84215    0.65067    1.59294    0.86043    0.81577    0.64281
  17.39130    0.79464    0.59836    1.43179    0.92296    0.77180    0.61212
  17.44983    0.73373    0.58306    1.31482    1.04300    0.72864    0.60702
  17.50836    0.68240    0.59104    1.25752    1.19499    0.69455    0.60873
  17.56689    0.64068    0.60417    1.26412    1.35761    0.65807    0.60714
  17.62542    0.59696    0.61844    1.33715    1.51261    0.60807    0.61099
  17.68395    0.54660    0.64311    1.47953    1.63769    0.54943    0.63405
  17.74247    0.49703    0.68533    1.68764    1.69901    0.49533    0.67904
  17.80100    0.45722    0.74320    1.93300    1.65212    0.45424    0.73980
  17.85953    0.43120    0.81108    2.14220    1.47016    0.42832    0.80951
  17.91806    0.41940    0.88445    2.22164    1.19872    0.41694    0.88386
  17.97659    0.42136    0.96075    2.14629    0.95441    0.41922    0.96066
  18.03512    0.43718    1.03859    1.99245    0.82326    0.43517    1.03881
  18.09365    0.46810    1.11679    1.85534    0.80086    0.46601    1.11735
  18.15217    0.51660    1.19332    1.78277    0.83344    0.51426    1.19444
  18.21070    0.58612    1.26385    1.77603    0.86886    0.58351    1.26605
  18.26923    0.67959    1.31992    1.81529    0.87708    0.67717    1.32406
  18.32776    0.79518    1.34753    1.88193    0.84478    0.79457    1.35449
  18.38629    0.91862    1.33075    1.95988    0.75844    0.92319    1.33988
  18.44482    1.02009    1.26670    2.01905    0.60381    1.03295    1.27305
  18.50334    1.07323    1.18177    2.01069    0.38989    1.09142    1.17703
  18.56187    1.08592    1.11511    1.89892    0.16793    1.09850    1.09596
  18.62      1.094      1.079      1.697     0.2853E-2   1.090      1.053   
  18.67893    1.12306    1.05131    1.45687   -0.07172    1.09999    1.03222
  18.73746    1.16750    0.99767    1.22790   -0.06290    1.13465    0.99933
  18.80      1.191     0.9039      1.038     0.1411E-2   1.167     0.9289   
  18.85452    1.15716    0.79644    0.89172    0.09380    1.15693    0.83051
  18.91304    1.06791    0.72345    0.78479    0.19537    1.08839    0.74739
  18.97157    0.95991    0.71005    0.70800    0.29507    0.98735    0.71610
  19.03010    0.86780    0.74887    0.65172    0.38798    0.89130    0.74014
  19.08863    0.80813    0.82075    0.60780    0.47474    0.82303    0.80317
  19.14716    0.78539    0.90910    0.57264    0.55935    0.79047    0.88749
  19.20569    0.80032    1.00189    0.54737    0.64463    0.79535    0.97987
  19.26421    0.85394    1.08849    0.53445    0.73012    0.83875    1.06956
  19.32274    0.94746    1.15538    0.53533    0.81319    0.92234    1.14421
  19.38127    1.07774    1.18244    0.54993    0.89012    1.04548    1.18565
  19.43980    1.22724    1.14411    0.57590    0.95681    1.19679    1.16847
  19.49833    1.35370    1.02459    0.60799    1.01073    1.34185    1.06945
  19.55686    1.40168    0.84671    0.63979    1.05388    1.42357    0.89481
  19.61539    1.34826    0.67591    0.66847    1.09299    1.39940    0.70041
  19.67391    1.22830    0.57075    0.69826    1.13515    1.28486    0.55780
  19.73244    1.09811    0.54253    0.73922    1.18167    1.13642    0.49845
  19.79097    0.99490    0.56880    0.80165    1.22446    1.00206    0.50970
  19.84950    0.93122    0.62025    0.88923    1.24660    0.90356    0.56422
  19.90803    0.90387    0.67217    0.99207    1.22679    0.84529    0.63820
  19.96655    0.89892    0.70726    1.08120    1.15121    0.82430    0.71389
  20.02508    0.89488    0.72097    1.11752    1.03334    0.83364    0.77678
  20.08361    0.87384    0.72650    1.08313    0.91684    0.86038    0.81508
  20.14214    0.83596    0.74558    0.99946    0.84229    0.88414    0.82561
  20.20067    0.79718    0.78995    0.90329    0.81890    0.88552    0.82195
  20.25920    0.77404    0.85659    0.81867    0.83333    0.86230    0.82888
  20.31773    0.77602    0.93543    0.75306    0.86853    0.83123    0.86283
  20.37625    0.80683    1.01501    0.70399    0.91243    0.81233    0.92322
  20.43478    0.86620    1.08288    0.66551    0.96048    0.81832    0.99982
  20.49331    0.94790    1.12503    0.63443    1.01402    0.85491    1.07995
  20.55184    1.03517    1.12985    0.61238    1.07458    0.92316    1.14980
  20.61037    1.10147    1.09991    0.60223    1.14062    1.01807    1.19350
  20.66890    1.12725    1.06070    0.60536    1.20916    1.12342    1.19606
  20.72742    1.12008    1.04586    0.62239    1.27724    1.20996    1.15534
  20.78595    1.10887    1.07088    0.65341    1.34125    1.25032    1.09539
  20.84448    1.12109    1.12791    0.69672    1.39708    1.24489    1.05672
  20.90301    1.17150    1.19734    0.74872    1.44232    1.22369    1.06522
  20.96154    1.26200    1.25665    0.80675    1.47688    1.22150    1.11911
  21.02007    1.38147    1.28549    0.87039    1.49952    1.26115    1.20043
  21.07860    1.50618    1.27517    0.93733    1.50549    1.35356    1.28648
  21.13712    1.61256    1.24008    0.99858    1.49022    1.50084    1.35254
  21.19565    1.70147    1.21034    1.03930    1.45814    1.69419    1.37221
  21.25418    1.80335    1.20145    1.05098    1.42755    1.90927    1.32471
  21.31271    1.95408    1.19497    1.04357    1.41857    2.11273    1.20968
  21.37124    2.16894    1.14406    1.03810    1.43579    2.28679    1.04766
  21.42977    2.42538    0.98994    1.04911    1.46796    2.43946    0.84921
  21.48829    2.65146    0.69134    1.07710    1.50047    2.57055    0.59358
  21.54682    2.74394    0.27177    1.11313    1.52679    2.63572    0.26192
  21.60535    2.63970   -0.16326    1.14970    1.55142    2.57084   -0.10824
  21.66388    2.37484   -0.49458    1.18869    1.58305    2.36245   -0.42744
  21.72241    2.04631   -0.67278    1.24002    1.62537    2.06942   -0.62648
  21.78094    1.73519   -0.71912    1.31527    1.67408    1.76921   -0.69904
  21.83946    1.47925   -0.67891    1.42404    1.71817    1.51032   -0.67833
  21.89799    1.28616   -0.59095    1.57206    1.73924    1.30916   -0.60209
  21.95652    1.15116   -0.48072    1.75402    1.71061    1.16505   -0.49796
  22.01505    1.06713   -0.36363    1.94336    1.60629    1.07214   -0.38327
  22.07358    1.02846   -0.24979    2.09345    1.42200    1.02494   -0.26911
  22.13211    1.03163   -0.14811    2.16211    1.18910    1.01988   -0.16436
  22.19064    1.07367   -0.06948    2.13912    0.95812    1.05450   -0.07916
  22.24916    1.14810   -0.02875    2.04442    0.76886    1.12427   -0.02743
  22.30769    1.23836   -0.04259    1.90864    0.64094    1.21660   -0.02657
  22.36622    1.31294   -0.11881    1.76251    0.57859    1.30402   -0.08973
  22.42475    1.33467   -0.24008    1.63366    0.57403    1.34724   -0.20932
  22.48328    1.28738   -0.36334    1.54305    0.60884    1.31830   -0.34739
  22.54181    1.19093   -0.44823    1.50036    0.65728    1.22519   -0.45609
  22.60033    1.08235   -0.48296    1.50145    0.69220    1.10382   -0.51060
  22.65886    0.98946   -0.48090    1.52797    0.69207    0.98906   -0.51589
  22.71739    0.92206   -0.46391    1.55137    0.64962    0.89958   -0.49139
  22.77592    0.87492   -0.45063    1.54426    0.57728    0.83919   -0.45760
  22.83445    0.83375   -0.44951    1.49418    0.50140    0.80162   -0.43081
  22.89298    0.78456   -0.45553    1.40765    0.44793    0.77355   -0.42002
  22.95151    0.72392   -0.45558    1.30313    0.43179    0.73956   -0.42312
  23.01003    0.65986   -0.44050    1.20147    0.45434    0.69138   -0.42773
  23.06856    0.60307   -0.41069    1.11795    0.50610    0.63312   -0.42094
  23.12709    0.55996   -0.37280    1.05797    0.57348    0.57558   -0.39826
  23.18562    0.53149   -0.33488    1.01820    0.64601    0.52769   -0.36332
  23.24415    0.51419   -0.30375    0.99200    0.72072    0.49350   -0.32289
  23.30268    0.50118   -0.28286    0.97641    0.80103    0.47312   -0.28382
  23.36120    0.48493   -0.27012    0.97497    0.89062    0.46363   -0.25200
  23.41973    0.46209   -0.25872    0.99467    0.98870    0.45920   -0.23136
  23.47826    0.43562   -0.24245    1.04192    1.08992    0.45206   -0.22158
  23.53679    0.41140   -0.22006    1.12108    1.18586    0.43641   -0.21677
  23.59532    0.39354   -0.19474    1.23387    1.26546    0.41261   -0.20886
  23.65384    0.38251   -0.17123    1.37786    1.31516    0.38628   -0.19322
  23.71237    0.37533   -0.15313    1.54408    1.32020    0.36350   -0.17055
  23.77090    0.36721   -0.14071    1.71447    1.26801    0.34770   -0.14466
  23.82943    0.35484   -0.13032    1.86103    1.15508    0.33918   -0.11996
  23.88796    0.33910   -0.11721    1.95164    0.99704    0.33570   -0.09993
  23.94649    0.32403   -0.09927    1.96811    0.83235    0.33335   -0.08573
  24.00502    0.31359   -0.07788    1.92398    0.70473    0.32865   -0.07533
  24.06355    0.30977   -0.05650    1.85761    0.63575    0.32123   -0.06493
  24.12207    0.31215   -0.03914    1.80650    0.61732    0.31386   -0.05237
  24.18060    0.31783   -0.02913    1.79138    0.62527    0.30976   -0.03881
  24.23913    0.32190   -0.02737    1.81591    0.63312    0.30996   -0.02771
  24.30     0.3198     -.3093E-1   1.871     0.6188     0.3123     -.2253E-1
  24.36     0.3104     -.3440E-1   1.938     0.5691     0.3122     -.2419E-1
  24.41471    0.29712   -0.03401    1.99683    0.48247    0.30538   -0.02959
  24.47324    0.28381   -0.02988    2.02865    0.36870    0.29141   -0.03331
  24.53177    0.27218   -0.02459    2.02472    0.24431    0.27383   -0.03175
  24.59     0.2611     -.2025E-1   1.986     0.1267     0.2569     -.2514E-1
  24.65     0.2485     -.1661E-1   1.922     0.2841E-1  0.2430     -.1618E-1
  24.71     0.2339     -.1172E-1   1.845     -.4662E-1  0.2315     -.7644E-2
  24.77     0.2187     -.4239E-2   1.763     -.1008     0.2204     -.6256E-3
  24.82     0.2048     0.5363E-2   1.680     -.1367     0.2081     0.5867E-2
  24.88     0.1926     0.1560E-1   1.598     -.1545     0.1944     0.1361E-1
  24.94     0.1813     0.2545E-1   1.523     -.1543     0.1808     0.2338E-1
  25.00000    0.16998    0.03510    1.45968   -0.13882    0.16836    0.03463
# 
# YAMBO@anomaly.roma2.infn.it x 001 CPUs * 08/29/2008  10:31 [start]
#                                          08/29/2008  10:33 [end]
# 
# Cpu Timing [Min/Max/Average]: 01m-11s/01m-11s/01m-11s
#
# .-Input file : Inputs/06_BSE
# | optics                       # [R OPT] Optics
# | bse                          # [R BSK] Bethe Salpeter Equation.
# | bss                          # [R BSS] Bethe Salpeter Equation solver
# | FFTGvecs=  773           RL  # [FFT] Plane-waves
# | % KfnQP_E
# |  5.800000 | 1.000000 | 1.000000 |      # [EXTQP BSK BSS] E parameters (c/v)
# | %
# | BSresKmod= "xc"              # [BSK] Resonant Kernel mode. (`x`;`c`;`d`)
# | % BSEBands
# |   2 |  7 |                   # [BSK] Bands range
# | %
# | BSENGBlk=  51            RL  # [BSK] Screened interaction block size
# | BSENGexx=  773           RL  # [BSK] Exchange components
# | BSSmod= "h"                  # [BSS] Solvers `h/d/i/t`
# | % BEnRange
# |   7.50000 | 25.00000 |   eV  # [BSS] Energy range
# | %
# | % BDmRange
# |  0.150000 | 0.300000 |   eV  # [BSS] Damping range
# | %
# | BEnSteps= 300                # [BSS] Energy steps
# | % BLongDir
# | 0.1000E-4 | 0.000    | 0.000    |      # [BSS] [cc] Electric Field
# | %
