#                                                           
#  /$$     /$$ /$$$$$$  /$$      /$$ /$$$$$$$   /$$$$$$     
# |  $$   /$$//$$__  $$| $$$    /$$$| $$__  $$ /$$__  $$    
#  \  $$ /$$/| $$  \ $$| $$$$  /$$$$| $$  \ $$| $$  \ $$    
#   \  $$$$/ | $$$$$$$$| $$ $$/$$ $$| $$$$$$$ | $$  | $$    
#    \  $$/  | $$__  $$| $$  $$$| $$| $$__  $$| $$  | $$    
#     | $$   | $$  | $$| $$\  $ | $$| $$  \ $$| $$  | $$    
#     | $$   | $$  | $$| $$ \/  | $$| $$$$$$$/|  $$$$$$/    
#     |__/   |__/  |__/|__/     |__/|_______/  \______/     
#                                                           
#             GPL Version 3.1.2 Revision 297                
#               http://www.yambo-code.org                   
#
# Absorption @ IQ 1 [q->0 dir]: 1.000000  0.000000  0.000000
#
# - Energies      are Perdew & Wang (xc)+Scissor
# - Wavefunctions are Perdew & Wang (xc)
# - The Green`s function is T-ordered -
# - The gauge is transverse + [r,Vnl] -
#
#  E/ev[1]    e/Im[2]    e/Re[3]    eo/Im[4]   eo/Re[5]
#
  7.500     0.3306E-1   2.944     0.6044E-2   1.846   
  7.559     0.3386E-1   2.957     0.6140E-2   1.848   
  7.617     0.3469E-1   2.971     0.6238E-2   1.851   
  7.676     0.3555E-1   2.986     0.6338E-2   1.853   
  7.734     0.3643E-1   3.000     0.6439E-2   1.856   
  7.793     0.3735E-1   3.015     0.6543E-2   1.858   
  7.851     0.3830E-1   3.030     0.6649E-2   1.861   
  7.910     0.3928E-1   3.046     0.6757E-2   1.864   
  7.968     0.4030E-1   3.062     0.6868E-2   1.866   
  8.027     0.4136E-1   3.078     0.6981E-2   1.869   
  8.085     0.4245E-1   3.095     0.7096E-2   1.872   
  8.144     0.4359E-1   3.112     0.7213E-2   1.875   
  8.202     0.4477E-1   3.130     0.7334E-2   1.878   
  8.261     0.4600E-1   3.148     0.7456E-2   1.881   
  8.319     0.4727E-1   3.167     0.7582E-2   1.884   
  8.378     0.4860E-1   3.186     0.7710E-2   1.887   
  8.436     0.4998E-1   3.205     0.7841E-2   1.890   
  8.495     0.5141E-1   3.226     0.7976E-2   1.893   
  8.554     0.5290E-1   3.246     0.8113E-2   1.896   
  8.612     0.5446E-1   3.268     0.8253E-2   1.899   
  8.671     0.5608E-1   3.290     0.8397E-2   1.903   
  8.729     0.5778E-1   3.312     0.8544E-2   1.906   
  8.788     0.5954E-1   3.335     0.8695E-2   1.910   
    8.8462     0.0614     3.3591     0.0088     1.9130
    8.9047     0.0633     3.3837     0.0090     1.9165
    8.9632     0.0653     3.4090     0.0092     1.9201
    9.0217     0.0674     3.4351     0.0093     1.9237
    9.0803     0.0697     3.4620     0.0095     1.9274
    9.1388     0.0720     3.4897     0.0097     1.9312
    9.1973     0.0744     3.5184     0.0099     1.9350
   9.25585    0.07695    3.54796    0.01004    1.93893
   9.31438    0.07962    3.57848    0.01023    1.94289
   9.37291    0.08244    3.61005    0.01042    1.94691
   9.43144    0.08540    3.64267    0.01062    1.95101
   9.48997    0.08852    3.67643    0.01082    1.95518
   9.54850    0.09181    3.71138    0.01103    1.95943
   9.60702    0.09528    3.74757    0.01125    1.96375
   9.66555    0.09894    3.78508    0.01147    1.96814
   9.72408    0.10282    3.82396    0.01169    1.97262
   9.78261    0.10692    3.86433    0.01193    1.97718
   9.84114    0.11126    3.90624    0.01217    1.98182
   9.89967    0.11586    3.94977    0.01242    1.98655
   9.95819    0.12075    3.99505    0.01267    1.99137
  10.01672    0.12595    4.04216    0.01293    1.99627
  10.07525    0.13149    4.09124    0.01320    2.00128
  10.13378    0.13739    4.14241    0.01348    2.00638
  10.19231    0.14368    4.19578    0.01377    2.01157
  10.25084    0.15041    4.25150    0.01406    2.01687
  10.30937    0.15762    4.30974    0.01437    2.02228
  10.36789    0.16535    4.37068    0.01468    2.02779
  10.42642    0.17365    4.43452    0.01501    2.03342
  10.48495    0.18257    4.50143    0.01535    2.03916
  10.54348    0.19220    4.57169    0.01570    2.04502
  10.60201    0.20259    4.64549    0.01606    2.05100
  10.66053    0.21383    4.72315    0.01643    2.05711
  10.71906    0.22603    4.80501    0.01681    2.06335
  10.77759    0.23929    4.89139    0.01721    2.06972
  10.83612    0.25373    4.98268    0.01763    2.07624
  10.89465    0.26950    5.07930    0.01806    2.08290
  10.95318    0.28676    5.18172    0.01850    2.08971
  11.01171    0.30572    5.29048    0.01896    2.09668
  11.07023    0.32661    5.40625    0.01945    2.10380
  11.12876    0.34969    5.52965    0.01995    2.11110
  11.18729    0.37527    5.66151    0.02047    2.11857
  11.24582    0.40374    5.80270    0.02101    2.12622
  11.30435    0.43554    5.95428    0.02157    2.13406
  11.36288    0.47121    6.11743    0.02216    2.14209
  11.42140    0.51140    6.29347    0.02277    2.15033
  11.47993    0.55691    6.48406    0.02341    2.15878
  11.53846    0.60872    6.69106    0.02408    2.16745
  11.59699    0.66802    6.91656    0.02478    2.17635
  11.65552    0.73633    7.16318    0.02552    2.18549
  11.71405    0.81556    7.43408    0.02629    2.19489
  11.77258    0.90812    7.73275    0.02709    2.20456
  11.83110    1.01722    8.06390    0.02794    2.21450
  11.88963    1.14688    8.43259    0.02884    2.22473
  11.94816    1.30265    8.84567    0.02978    2.23527
  12.00669    1.49185    9.31108    0.03077    2.24613
  12.06522    1.72458    9.83877    0.03182    2.25733
  12.12375    2.01503   10.44136    0.03293    2.26889
  12.18227    2.38350   11.13440    0.03410    2.28083
  12.24080    2.85941   11.93656    0.03535    2.29317
  12.29933    3.48729   12.87103    0.03667    2.30593
  12.35786    4.33542   13.96335    0.03808    2.31915
  12.41639    5.51258   15.23831    0.03959    2.33285
  12.47492    7.19394   16.70276    0.04121    2.34706
  12.53344    9.66801   18.30421    0.04294    2.36182
  12.59197   13.38668   19.80302    0.04480    2.37717
  12.65050   18.94921   20.46398    0.04681    2.39315
  12.70903   26.57025   18.48091    0.04898    2.40981
  12.76756   34.16077   11.16140    0.05134    2.42721
  12.82609   36.17213   -0.94711    0.05391    2.44540
  12.88462   30.57185  -11.08575    0.05672    2.46446
  12.94314   22.51885  -15.35619    0.05981    2.48446
  13.00167   15.95833  -15.69414    0.06323    2.50550
  13.06020   11.44544  -14.49265    0.06702    2.52768
  13.11873    8.44609  -12.91711    0.07127    2.55112
  13.17726    6.42822  -11.38847    0.07604    2.57597
  13.23579    5.03420  -10.02697    0.08146    2.60239
  13.29431    4.04367   -8.84772    0.08766    2.63058
  13.35284    3.32075   -7.83250    0.09483    2.66077
  13.41137    2.78086   -6.95601    0.10322    2.69325
  13.46990    2.36982   -6.19394    0.11316    2.72835
  13.52843    2.05226   -5.52561    0.12511    2.76649
  13.58696    1.80438   -4.93364    0.13973    2.80815
  13.64548    1.61002   -4.40372    0.15798    2.85393
  13.70401    1.45829   -3.92417    0.18127    2.90450
  13.76254    1.34198   -3.48518    0.21178    2.96053
  13.82107    1.25672   -3.07837    0.25289    3.02252
  13.87960    1.20079   -2.69658    0.30998    3.09013
  13.93813    1.17509   -2.33374    0.39151    3.16051
  13.99666    1.18374   -1.98515    0.50966    3.22400
  14.05518    1.23488   -1.64894    0.67640    3.25490
  14.11371    1.34094   -1.32884    0.88145    3.20167
  14.17224    1.51666   -1.03794    1.04531    3.01771
  14.23077    1.77813   -0.80196    1.04910    2.77051
  14.28930    2.13865   -0.67921    0.90989    2.61481
  14.34783    2.54316   -0.77903    0.75333    2.59136
  14.40635    2.78541   -1.13025    0.64814    2.64432
  14.46488    2.71862   -1.49900    0.60127    2.71971
  14.52341    2.51883   -1.67020    0.59598    2.78254
  14.58194    2.39567   -1.72795    0.59908    2.81699
  14.64047    2.33191   -1.85000    0.57786    2.84321
  14.69900    2.16220   -2.05477    0.53845    2.89682
  14.75752    1.83620   -2.17994    0.50805    2.98457
  14.81605    1.48096   -2.14047    0.49989    3.09508
  14.87458    1.19358   -1.99062    0.51568    3.21983
  14.93311    0.98719   -1.79780    0.55539    3.35593
  14.99164    0.84452   -1.59753    0.62132    3.50355
  15.05017    0.74760   -1.40336    0.71953    3.66358
  15.10870    0.68420   -1.21905    0.86110    3.83546
  15.16722    0.64740   -1.04495    1.06372    4.01352
  15.22575    0.63435   -0.88114    1.35210    4.17913
  15.28428    0.64484   -0.72981    1.75003    4.28620
  15.34281    0.67843   -0.59742    2.24726    4.25047
  15.40134    0.72832   -0.49421    2.74477    3.99290
  15.45987    0.77700   -0.42447    3.09178    3.55388
  15.51839    0.80768   -0.37582    3.24790    3.07143
  15.57692    0.82010   -0.32980    3.27171    2.61308
  15.63545    0.82239   -0.27757    3.19512    2.17855
  15.69398    0.82086   -0.21407    2.99766    1.76611
  15.75251    0.82565   -0.13336    2.64402    1.45414
  15.81104    0.85568   -0.03628    2.22026    1.34976
  15.86957    0.93086    0.05837    1.86416    1.43548
  15.92809    1.05513    0.11311    1.63574    1.62446
  15.98662    1.19601    0.08536    1.53626    1.84704
  16.04515    1.27976   -0.02559    1.55268    2.05700
  16.10368    1.26360   -0.14466    1.66606    2.21370
  16.16221    1.19356   -0.20776    1.83814    2.28329
  16.22074    1.12264   -0.22499    2.02038    2.26386
  16.27926    1.05816   -0.22105    2.19249    2.16902
  16.33779    0.99641   -0.19884    2.32951    1.98536
  16.39632    0.94435   -0.15731    2.35999    1.73358
  16.45485    0.91067   -0.10445    2.26165    1.51700
  16.51338    0.89442   -0.05445    2.12367    1.39681
  16.57     0.8808     -.1314E-1   2.014      1.318   
  16.63043    0.85952    0.03403    1.89393    1.22358
  16.68896    0.84287    0.10359    1.70997    1.15583
  16.74749    0.85411    0.19481    1.49541    1.18007
  16.80602    0.91254    0.28978    1.31714    1.29576
  16.86455    1.02680    0.35764    1.20746    1.46564
  16.92308    1.18477    0.35521    1.17125    1.65861
  16.98161    1.33139    0.24438    1.20835    1.85515
  17.04013    1.37655    0.04986    1.32325    2.03782
  17.09866    1.28765   -0.12329    1.52415    2.17876
  17.15719    1.13483   -0.19815    1.80861    2.22715
  17.21572    0.99722   -0.18682    2.12691    2.11331
  17.27425    0.90216   -0.13433    2.34920    1.81359
  17.33278    0.84301   -0.06962    2.34767    1.44755
  17.39     0.8120     -.8497E-3   2.160      1.201   
  17.44983    0.81102    0.06445    1.94170    1.13277
  17.50836    0.83751    0.10935    1.79949    1.17898
  17.56689    0.87330    0.12023    1.75583    1.25505
  17.62542    0.89572    0.10180    1.78584    1.30596
  17.68395    0.89528    0.06961    1.85771    1.31321
  17.74247    0.87184    0.03538    1.95648    1.26911
  17.80     0.8276     0.9009E-2   2.066      1.151   
  17.86     0.7702     -.1596E-2   2.136     0.9391   
  17.92     0.7091     0.3742E-2   2.094     0.6621   
  17.97659    0.64732    0.02038    1.91252    0.41181
  18.03512    0.58309    0.04867    1.64197    0.26523
  18.09365    0.51946    0.09354    1.36030    0.23670
  18.15217    0.46456    0.15490    1.11993    0.29407
  18.21070    0.42347    0.22712    0.93656    0.39630
  18.26923    0.39657    0.30456    0.80494    0.51428
  18.32776    0.38235    0.38387    0.71377    0.63148
  18.38629    0.37929    0.46350    0.65089    0.73936
  18.44482    0.38641    0.54285    0.60431    0.83601
  18.50334    0.40347    0.62209    0.56565    0.92621
  18.56187    0.43174    0.70156    0.53422    1.01649
  18.62040    0.47427    0.78037    0.51388    1.10893
  18.67893    0.53477    0.85477    0.50783    1.20138
  18.73746    0.61565    0.91713    0.51735    1.29000
  18.79599    0.71386    0.95620    0.54176    1.36988
  18.85452    0.81646    0.96311    0.57703    1.43586
  18.91304    0.90574    0.94245    0.61495    1.48617
  18.97157    0.97590    0.91109    0.64756    1.52651
  19.03010    1.03809    0.88022    0.67440    1.56776
  19.08863    1.10734    0.84285    0.70500    1.61809
  19.14716    1.18350    0.77548    0.75446    1.67540
  19.20569    1.23573    0.65985    0.83494    1.72507
  19.26421    1.21997    0.51824    0.94765    1.74226
  19.32274    1.13047    0.40719    1.07301    1.69843
  19.38127    1.00749    0.36142    1.16407    1.58281
  19.43980    0.89160    0.37526    1.17143    1.43156
  19.49833    0.80188    0.42877    1.09450    1.31085
  19.55686    0.74393    0.50426    0.98040    1.25645
  19.61539    0.71719    0.58785    0.87257    1.25909
  19.67391    0.71714    0.66896    0.78840    1.29476
  19.73244    0.73594    0.74112    0.72801    1.34404
  19.79097    0.76479    0.80483    0.68357    1.39646
  19.84950    0.80115    0.86708    0.64698    1.45166
  19.90803    0.85231    0.93200    0.61718    1.51401
  19.96655    0.92764    0.99379    0.59829    1.58432
  20.02508    1.03082    1.03989    0.59323    1.65940
  20.08361    1.15890    1.05538    0.60274    1.73592
  20.14214    1.29951    1.02355    0.62751    1.81076
  20.20067    1.42482    0.93584    0.66737    1.87926
  20.25920    1.50422    0.80885    0.71902    1.93691
  20.31773    1.53021    0.67437    0.77775    1.98280
  20.37625    1.51357    0.55263    0.84233    2.01799
  20.43478    1.46383    0.45421    0.91373    2.03936
  20.49331    1.39224    0.39066    0.98764    2.03905
  20.55184    1.31867    0.36886    1.04904    2.01249
  20.61037    1.26633    0.38203    1.07836    1.97179
  20.66890    1.25019    0.40952    1.07295    1.94534
  20.72742    1.26898    0.42508    1.05520    1.95254
  20.78595    1.30329    0.40975    1.05112    1.98789
  20.84448    1.32658    0.36616    1.07070    2.03197
  20.90301    1.32835    0.31513    1.10657    2.06910
  20.96154    1.31960    0.27046    1.14501    2.09803
  21.02007    1.31211    0.22693    1.18044    2.12953
  21.07860    1.30310    0.17279    1.22045    2.17379
  21.13712    1.27847    0.10561    1.27900    2.23155
  21.19565    1.22628    0.03712    1.36890    2.29480
  21.25      1.147     -.1432E-1   1.500      2.349   
  21.31271    1.05327   -0.03453    1.67867    2.36881
  21.37124    0.96531   -0.02248    1.89075    2.32016
  21.43     0.8960     0.1039E-1   2.094      2.177   
  21.48829    0.84678    0.05041    2.22959    1.94962
  21.54682    0.81215    0.08972    2.25949    1.69197
  21.60535    0.78653    0.12685    2.19229    1.46189
  21.66388    0.76737    0.16314    2.06085    1.29317
  21.72241    0.75504    0.19999    1.90073    1.19785
  21.78094    0.75208    0.23708    1.74476    1.17390
  21.83946    0.76149    0.27027    1.62105    1.20705
  21.89799    0.78217    0.29128    1.54817    1.27219
  21.95652    0.80487    0.29322    1.53045    1.33869
  22.01505    0.81597    0.27880    1.55624    1.37722
  22.07358    0.80846    0.26057    1.59846    1.36852
  22.13211    0.78637    0.25051    1.62216    1.31369
  22.19064    0.75803    0.25343    1.60120    1.23635
  22.24916    0.73016    0.26940    1.53165    1.16949
  22.30769    0.70793    0.29719    1.42918    1.13817
  22.36622    0.69650    0.33435    1.31778    1.15208
  22.42475    0.70032    0.37550    1.21943    1.20604
  22.48328    0.72014    0.41290    1.14652    1.28551
  22.54181    0.75176    0.44019    1.09960    1.37534
  22.60033    0.78923    0.45626    1.07132    1.46720
  22.65886    0.83108    0.46362    1.05433    1.56225
  22.71739    0.88091    0.46046    1.04844    1.66651
  22.77592    0.93871    0.43656    1.06037    1.78296
  22.83445    0.99154    0.38065    1.09831    1.90862
  22.89298    1.01574    0.29544    1.16861    2.03638
  22.95151    0.99502    0.20423    1.27525    2.15634
  23.01003    0.93639    0.13533    1.41912    2.25573
  23.06856    0.86220    0.10131    1.59586    2.31922
  23.12709    0.79196    0.09787    1.79294    2.33098
  23.18562    0.73547    0.11434    1.98694    2.27957
  23.24415    0.69525    0.14037    2.14393    2.16758
  23.30268    0.66937    0.16810    2.23132    2.02342
  23.36120    0.65393    0.19307    2.24306    1.89735
  23.41973    0.64527    0.21332    2.21148    1.83122
  23.47826    0.63997    0.22789    2.18530    1.83261
  23.53679    0.63411    0.23743    2.20110    1.88014
  23.59532    0.62505    0.24538    2.27496    1.94209
  23.65384    0.61381    0.25587    2.40670    1.98702
  23.71237    0.60408    0.27043    2.58307    1.98783
  23.77090    0.59912    0.28731    2.77999    1.92628
  23.82943    0.59991    0.30323    2.96704    1.79748
  23.88796    0.60525    0.31517    3.11469    1.61293
  23.94649    0.61250    0.32146    3.20507    1.39875
  24.00502    0.61868    0.32218    3.24045    1.18388
  24.06355    0.62160    0.31894    3.23793    0.98335
  24.12207    0.62049    0.31383    3.21048    0.79429
  24.18060    0.61550    0.30835    3.15553    0.61174
  24.23913    0.60672    0.30351    3.06532    0.44394
  24.29766    0.59418    0.30069    2.94301    0.30833
  24.35619    0.57872    0.30165    2.80529    0.21700
  24.41471    0.56232    0.30739    2.67197    0.16824
  24.47324    0.54687    0.31749    2.55442    0.15115
  24.53177    0.53308    0.33108    2.45466    0.15726
  24.59030    0.52130    0.34816    2.37547    0.18453
  24.64883    0.51284    0.36896    2.32600    0.22868
  24.70736    0.50961    0.39251    2.31401    0.27582
  24.76589    0.51266    0.41665    2.33648    0.30766
  24.82442    0.52185    0.43905    2.37980    0.31171
  24.88294    0.53613    0.45769    2.42719    0.28662
  24.94147    0.55351    0.47108    2.46719    0.24093
  25.00000    0.57132    0.47916    2.49958    0.18577
# 
# YAMBO@anomaly.roma2.infn.it x 001 CPUs * 08/29/2008  10:33 [start]
#                                          08/29/2008  10:33 [end]
# 
# Cpu Timing [Min/Max/Average]: 03s/03s/03s
#
# .-Input file : Inputs/07_LRC
# | optics                       # [R OPT] Optics
# | chi                          # [R CHI] Dyson equation for Chi.
# | lrc_fxc                      # [R TDDFT] The LRC TDDFT kernel
# | FFTGvecs=  773           RL  # [FFT] Plane-waves
# | % XfnQP_E
# |  5.190000 | 1.000000 | 1.000000 |      # [EXTQP Xd] E parameters (c/v)
# | %
# | % QpntsRXd
# |  1 | 1 |                     # [Xd] Transferred momenta
# | %
# | % BndsRnXd
# |   1 | 10 |                   # [Xd] Polarization function bands
# | %
# | NGsBlkXd=  51            RL  # [Xd] Response block size
# | % EnRngeXd
# |   7.50000 | 25.00000 |   eV  # [Xd] Energy range
# | %
# | % DmRngeXd
# |   0.10000 |  0.30000 |   eV  # [Xd] Damping range
# | %
# | ETStpsXd= 300                # [Xd] Total Energy steps
# | % LongDrXd
# | 0.1000E-4 | 0.000    | 0.000    |      # [Xd] [cc] Electric Field
# | %
# | LRC_alpha=-8.700000          # [TDDFT] LRC alpha factor
