#                                                           
#  __  __   ________   ___ __ __    _______   ______        
# /_/\/_/\ /_______/\ /__//_//_/\ /_______/\ /_____/\       
# \ \ \ \ \\::: _  \ \\::\| \| \ \\::: _  \ \\:::_ \ \      
#  \:\_\ \ \\::(_)  \ \\:.      \ \\::(_)  \/_\:\ \ \ \     
#   \::::_\/ \:: __  \ \\:.\-/\  \ \\::  _  \ \\:\ \ \ \    
#     \::\ \  \:.\ \  \ \\. \  \  \ \\::(_)  \ \\:\_\ \ \   
#      \__\/   \__\/\__\/ \__\/ \__\/ \_______\/ \_____\/   
#                                                           
#                                                           
# GPL Version 4.4.0 Revision 148. (Based on r.16920 h.961a8d
#                  MPI+SLK+OpenMP Build                     
#                http://www.yambo-code.org                  
#
# Absorption @ Q(1) [q->0 direction] :0.1000E-4  0.000     0.000   
#
#
# - Energies      are  Analyt. E
# - Wavefunctions are +AMGB (for 2D systems)(C)
#
# - The Green`s function is Retarded -
# - Using the Length Gauge -
# - [r,Vnl] *is* included -
#
#
#    E/ev[1]      EPS-Im[2]    EPS-Re[3]    EPSo-Im[4]   EPSo-Re[5]
#
    0.000000     0.000000     1.667911     0.000000     1.478824
   0.1001E-1    0.7917E-4     1.668       0.2954E-4     1.479   
   0.2002E-1    0.1583E-3     1.668       0.5908E-4     1.479   
   0.3003E-1    0.2375E-3     1.668       0.8862E-4     1.479   
   0.4004E-1    0.3167E-3     1.668       0.1182E-3     1.479   
   0.5005E-1    0.3959E-3     1.668       0.1477E-3     1.479   
   0.6006E-1    0.4752E-3     1.668       0.1773E-3     1.479   
   0.7007E-1    0.5545E-3     1.668       0.2068E-3     1.479   
   0.8008E-1    0.6338E-3     1.668       0.2364E-3     1.479   
   0.9009E-1    0.7132E-3     1.668       0.2660E-3     1.479   
   0.1001       0.7926E-3     1.668       0.2956E-3     1.479   
   0.1101       0.8721E-3     1.668       0.3252E-3     1.479   
   0.1201       0.9516E-3     1.668       0.3548E-3     1.479   
   0.1301       0.1031E-2     1.669       0.3844E-3     1.479   
   0.1401       0.1111E-2     1.669       0.4141E-3     1.479   
   0.1502       0.1191E-2     1.669       0.4437E-3     1.479   
   0.1602       0.1271E-2     1.669       0.4734E-3     1.479   
   0.1702       0.1350E-2     1.669       0.5031E-3     1.479   
   0.1802       0.1430E-2     1.669       0.5328E-3     1.479   
   0.1902       0.1511E-2     1.669       0.5625E-3     1.479   
   0.2002       0.1591E-2     1.669       0.5923E-3     1.479   
   0.2102       0.1671E-2     1.670       0.6221E-3     1.479   
   0.2202       0.1752E-2     1.670       0.6519E-3     1.480   
   0.2302       0.1832E-2     1.670       0.6817E-3     1.480   
   0.2402       0.1913E-2     1.670       0.7115E-3     1.480   
   0.2503       0.1994E-2     1.670       0.7414E-3     1.480   
   0.2603       0.2075E-2     1.671       0.7713E-3     1.480   
   0.2703       0.2156E-2     1.671       0.8012E-3     1.480   
   0.2803       0.2238E-2     1.671       0.8312E-3     1.480   
   0.2903       0.2319E-2     1.671       0.8612E-3     1.480   
   0.3003       0.2401E-2     1.671       0.8912E-3     1.480   
   0.3103       0.2483E-2     1.672       0.9213E-3     1.480   
   0.3203       0.2565E-2     1.672       0.9514E-3     1.480   
   0.3303       0.2647E-2     1.672       0.9815E-3     1.480   
   0.3403       0.2729E-2     1.673       0.1012E-2     1.481   
   0.3504       0.2812E-2     1.673       0.1042E-2     1.481   
   0.3604       0.2895E-2     1.673       0.1072E-2     1.481   
   0.3704       0.2978E-2     1.673       0.1102E-2     1.481   
   0.3804       0.3061E-2     1.674       0.1133E-2     1.481   
   0.3904       0.3144E-2     1.674       0.1163E-2     1.481   
   0.4004       0.3228E-2     1.674       0.1194E-2     1.481   
   0.4104       0.3312E-2     1.675       0.1224E-2     1.481   
   0.4204       0.3396E-2     1.675       0.1255E-2     1.481   
   0.4304       0.3481E-2     1.675       0.1285E-2     1.482   
   0.4404       0.3565E-2     1.676       0.1316E-2     1.482   
   0.4505       0.3650E-2     1.676       0.1346E-2     1.482   
   0.4605       0.3735E-2     1.676       0.1377E-2     1.482   
   0.4705       0.3821E-2     1.677       0.1408E-2     1.482   
   0.4805       0.3907E-2     1.677       0.1439E-2     1.482   
   0.4905       0.3993E-2     1.678       0.1470E-2     1.482   
   0.5005       0.4079E-2     1.678       0.1501E-2     1.483   
   0.5105       0.4166E-2     1.678       0.1532E-2     1.483   
   0.5205       0.4253E-2     1.679       0.1563E-2     1.483   
   0.5305       0.4340E-2     1.679       0.1594E-2     1.483   
   0.5405       0.4428E-2     1.680       0.1625E-2     1.483   
   0.5506       0.4516E-2     1.680       0.1656E-2     1.483   
      0.5606       0.0046       1.6805       0.0017       1.4835
      0.5706       0.0047       1.6810       0.0017       1.4837
      0.5806       0.0048       1.6815       0.0018       1.4838
      0.5906       0.0049       1.6820       0.0018       1.4840
      0.6006       0.0050       1.6825       0.0018       1.4842
      0.6106       0.0051       1.6830       0.0018       1.4844
      0.6206       0.0051       1.6835       0.0019       1.4846
      0.6306       0.0052       1.6840       0.0019       1.4848
      0.6406       0.0053       1.6845       0.0019       1.4850
      0.6507       0.0054       1.6850       0.0020       1.4851
      0.6607       0.0055       1.6856       0.0020       1.4853
      0.6707       0.0056       1.6861       0.0020       1.4855
      0.6807       0.0057       1.6867       0.0021       1.4858
      0.6907       0.0058       1.6873       0.0021       1.4860
      0.7007       0.0059       1.6879       0.0021       1.4862
      0.7107       0.0060       1.6885       0.0022       1.4864
      0.7207       0.0061       1.6891       0.0022       1.4866
      0.7307       0.0062       1.6897       0.0022       1.4868
      0.7407       0.0063       1.6903       0.0023       1.4871
      0.7508       0.0064       1.6909       0.0023       1.4873
      0.7608       0.0065       1.6916       0.0023       1.4875
      0.7708       0.0066       1.6922       0.0024       1.4877
      0.7808       0.0066       1.6929       0.0024       1.4880
      0.7908       0.0067       1.6935       0.0024       1.4882
      0.8008       0.0068       1.6942       0.0025       1.4885
      0.8108       0.0069       1.6949       0.0025       1.4887
      0.8208       0.0070       1.6956       0.0025       1.4890
      0.8308       0.0071       1.6963       0.0026       1.4892
      0.8408       0.0072       1.6970       0.0026       1.4895
      0.8509       0.0073       1.6978       0.0026       1.4897
      0.8609       0.0075       1.6985       0.0027       1.4900
      0.8709       0.0076       1.6992       0.0027       1.4903
      0.8809       0.0077       1.7000       0.0027       1.4905
      0.8909       0.0078       1.7008       0.0028       1.4908
      0.9009       0.0079       1.7016       0.0028       1.4911
      0.9109       0.0080       1.7023       0.0028       1.4914
      0.9209       0.0081       1.7031       0.0029       1.4917
      0.9309       0.0082       1.7040       0.0029       1.4920
      0.9409       0.0083       1.7048       0.0029       1.4922
      0.9510       0.0084       1.7056       0.0030       1.4925
      0.9610       0.0085       1.7065       0.0030       1.4928
      0.9710       0.0086       1.7073       0.0030       1.4931
      0.9810       0.0087       1.7082       0.0031       1.4934
      0.9910       0.0088       1.7091       0.0031       1.4938
      1.0010       0.0090       1.7099       0.0032       1.4941
      1.0110       0.0091       1.7108       0.0032       1.4944
      1.0210       0.0092       1.7117       0.0032       1.4947
      1.0310       0.0093       1.7127       0.0033       1.4950
      1.0410       0.0094       1.7136       0.0033       1.4954
      1.0511       0.0095       1.7146       0.0033       1.4957
      1.0611       0.0096       1.7155       0.0034       1.4960
      1.0711       0.0098       1.7165       0.0034       1.4964
      1.0811       0.0099       1.7175       0.0034       1.4967
      1.0911       0.0100       1.7184       0.0035       1.4971
      1.1011       0.0101       1.7195       0.0035       1.4974
      1.1111       0.0102       1.7205       0.0036       1.4978
      1.1211       0.0104       1.7215       0.0036       1.4981
      1.1311       0.0105       1.7225       0.0036       1.4985
      1.1411       0.0106       1.7236       0.0037       1.4988
      1.1512       0.0107       1.7247       0.0037       1.4992
      1.1612       0.0109       1.7257       0.0037       1.4996
      1.1712       0.0110       1.7268       0.0038       1.4999
      1.1812       0.0111       1.7279       0.0038       1.5003
      1.1912       0.0112       1.7290       0.0039       1.5007
      1.2012       0.0114       1.7302       0.0039       1.5011
      1.2112       0.0115       1.7313       0.0039       1.5015
      1.2212       0.0116       1.7325       0.0040       1.5019
      1.2312       0.0118       1.7336       0.0040       1.5023
      1.2412       0.0119       1.7348       0.0040       1.5027
      1.2513       0.0120       1.7360       0.0041       1.5031
      1.2613       0.0122       1.7372       0.0041       1.5035
      1.2713       0.0123       1.7384       0.0042       1.5039
      1.2813       0.0125       1.7397       0.0042       1.5043
      1.2913       0.0126       1.7409       0.0042       1.5048
      1.3013       0.0127       1.7422       0.0043       1.5052
      1.3113       0.0129       1.7435       0.0043       1.5056
      1.3213       0.0130       1.7448       0.0044       1.5060
      1.3313       0.0132       1.7461       0.0044       1.5065
      1.3413       0.0133       1.7474       0.0044       1.5069
      1.3514       0.0135       1.7487       0.0045       1.5074
      1.3614       0.0136       1.7501       0.0045       1.5078
      1.3714       0.0138       1.7514       0.0046       1.5083
      1.3814       0.0139       1.7528       0.0046       1.5087
      1.3914       0.0141       1.7542       0.0047       1.5092
      1.4014       0.0142       1.7556       0.0047       1.5097
      1.4114       0.0144       1.7570       0.0047       1.5101
      1.4214       0.0145       1.7585       0.0048       1.5106
      1.4314       0.0147       1.7599       0.0048       1.5111
      1.4414       0.0149       1.7614       0.0049       1.5116
      1.4515       0.0150       1.7629       0.0049       1.5121
      1.4615       0.0152       1.7644       0.0050       1.5126
      1.4715       0.0153       1.7659       0.0050       1.5131
      1.4815       0.0155       1.7675       0.0050       1.5136
      1.4915       0.0157       1.7690       0.0051       1.5141
      1.5015       0.0158       1.7706       0.0051       1.5146
      1.5115       0.0160       1.7722       0.0052       1.5151
      1.5215       0.0162       1.7738       0.0052       1.5156
      1.5315       0.0164       1.7754       0.0053       1.5161
      1.5415       0.0165       1.7771       0.0053       1.5167
      1.5516       0.0167       1.7787       0.0054       1.5172
      1.5616       0.0169       1.7804       0.0054       1.5178
      1.5716       0.0171       1.7821       0.0055       1.5183
      1.5816       0.0173       1.7838       0.0055       1.5188
      1.5916       0.0175       1.7855       0.0055       1.5194
      1.6016       0.0177       1.7873       0.0056       1.5199
      1.6116       0.0178       1.7891       0.0056       1.5205
      1.6216       0.0180       1.7908       0.0057       1.5211
      1.6316       0.0182       1.7927       0.0057       1.5216
      1.6416       0.0184       1.7945       0.0058       1.5222
      1.6517       0.0186       1.7963       0.0058       1.5228
      1.6617       0.0188       1.7982       0.0059       1.5234
      1.6717       0.0190       1.8001       0.0059       1.5240
      1.6817       0.0192       1.8020       0.0060       1.5246
      1.6917       0.0195       1.8039       0.0060       1.5252
      1.7017       0.0197       1.8059       0.0061       1.5258
      1.7117       0.0199       1.8078       0.0061       1.5264
      1.7217       0.0201       1.8098       0.0062       1.5270
      1.7317       0.0203       1.8118       0.0062       1.5276
      1.7417       0.0205       1.8139       0.0063       1.5283
      1.7518       0.0208       1.8159       0.0063       1.5289
      1.7618       0.0210       1.8180       0.0064       1.5295
      1.7718       0.0212       1.8201       0.0064       1.5302
      1.7818       0.0214       1.8223       0.0065       1.5308
      1.7918       0.0217       1.8244       0.0066       1.5315
      1.8018       0.0219       1.8266       0.0066       1.5321
      1.8118       0.0222       1.8288       0.0067       1.5328
      1.8218       0.0224       1.8310       0.0067       1.5335
      1.8318       0.0226       1.8332       0.0068       1.5341
      1.8418       0.0229       1.8355       0.0068       1.5348
      1.8519       0.0231       1.8378       0.0069       1.5355
      1.8619       0.0234       1.8401       0.0069       1.5362
      1.8719       0.0237       1.8425       0.0070       1.5369
      1.8819       0.0239       1.8448       0.0070       1.5376
      1.8919       0.0242       1.8472       0.0071       1.5383
      1.9019       0.0245       1.8496       0.0072       1.5390
      1.9119       0.0247       1.8521       0.0072       1.5397
      1.9219       0.0250       1.8546       0.0073       1.5404
      1.9319       0.0253       1.8571       0.0073       1.5412
      1.9419       0.0256       1.8596       0.0074       1.5419
      1.9520       0.0259       1.8622       0.0074       1.5426
      1.9620       0.0261       1.8648       0.0075       1.5434
      1.9720       0.0264       1.8674       0.0076       1.5441
      1.9820       0.0267       1.8700       0.0076       1.5449
      1.9920       0.0270       1.8727       0.0077       1.5457
      2.0020       0.0273       1.8754       0.0077       1.5464
      2.0120       0.0277       1.8782       0.0078       1.5472
      2.0220       0.0280       1.8809       0.0079       1.5480
      2.0320       0.0283       1.8837       0.0079       1.5488
      2.0420       0.0286       1.8866       0.0080       1.5496
      2.0521       0.0289       1.8894       0.0081       1.5504
      2.0621       0.0293       1.8923       0.0081       1.5512
      2.0721       0.0296       1.8952       0.0082       1.5520
      2.0821       0.0300       1.8982       0.0083       1.5528
      2.0921       0.0303       1.9012       0.0083       1.5537
      2.1021       0.0307       1.9042       0.0084       1.5545
      2.1121       0.0310       1.9073       0.0085       1.5553
      2.1221       0.0314       1.9104       0.0085       1.5562
      2.1321       0.0317       1.9136       0.0086       1.5570
      2.1421       0.0321       1.9167       0.0087       1.5579
      2.1522       0.0325       1.9200       0.0087       1.5588
      2.1622       0.0329       1.9232       0.0088       1.5596
      2.1722       0.0333       1.9265       0.0089       1.5605
      2.1822       0.0337       1.9298       0.0089       1.5614
      2.1922       0.0341       1.9332       0.0090       1.5623
      2.2022       0.0345       1.9366       0.0091       1.5632
      2.2122       0.0349       1.9401       0.0091       1.5641
      2.2222       0.0353       1.9436       0.0092       1.5650
      2.2322       0.0357       1.9471       0.0093       1.5660
      2.2422       0.0362       1.9507       0.0094       1.5669
      2.2523       0.0366       1.9543       0.0094       1.5678
      2.2623       0.0371       1.9580       0.0095       1.5688
      2.2723       0.0375       1.9617       0.0096       1.5697
      2.2823       0.0380       1.9654       0.0097       1.5707
      2.2923       0.0385       1.9692       0.0097       1.5717
      2.3023       0.0389       1.9731       0.0098       1.5726
      2.3123       0.0394       1.9770       0.0099       1.5736
      2.3223       0.0399       1.9809       0.0100       1.5746
     2.33233      0.04043      1.98490      0.01005      1.57561
     2.34234      0.04094      1.98894      0.01013      1.57662
     2.35235      0.04146      1.99304      0.01021      1.57763
     2.36236      0.04199      1.99718      0.01029      1.57865
     2.37237      0.04253      2.00138      0.01037      1.57969
     2.38238      0.04307      2.00564      0.01045      1.58073
     2.39239      0.04363      2.00994      0.01054      1.58177
     2.40240      0.04420      2.01431      0.01062      1.58283
     2.41241      0.04477      2.01872      0.01070      1.58389
     2.42242      0.04536      2.02320      0.01079      1.58497
     2.43243      0.04596      2.02774      0.01087      1.58605
     2.44244      0.04656      2.03233      0.01096      1.58714
     2.45245      0.04718      2.03699      0.01105      1.58824
     2.46246      0.04781      2.04170      0.01114      1.58935
     2.47247      0.04845      2.04648      0.01123      1.59046
     2.48248      0.04911      2.05132      0.01132      1.59159
     2.49249      0.04977      2.05623      0.01141      1.59272
     2.50250      0.05045      2.06121      0.01150      1.59387
     2.51251      0.05114      2.06625      0.01159      1.59502
     2.52252      0.05184      2.07136      0.01168      1.59618
     2.53253      0.05256      2.07654      0.01178      1.59735
     2.54254      0.05329      2.08179      0.01187      1.59853
     2.55255      0.05403      2.08711      0.01197      1.59972
     2.56256      0.05479      2.09251      0.01206      1.60092
     2.57257      0.05557      2.09798      0.01216      1.60213
     2.58258      0.05635      2.10353      0.01226      1.60335
     2.59259      0.05716      2.10916      0.01236      1.60458
     2.60260      0.05798      2.11487      0.01246      1.60582
     2.61261      0.05882      2.12066      0.01256      1.60707
     2.62262      0.05967      2.12653      0.01266      1.60833
     2.63263      0.06054      2.13249      0.01277      1.60960
     2.64264      0.06143      2.13853      0.01287      1.61088
     2.65265      0.06234      2.14466      0.01298      1.61217
     2.66266      0.06326      2.15089      0.01308      1.61347
     2.67267      0.06421      2.15720      0.01319      1.61478
     2.68268      0.06517      2.16361      0.01330      1.61610
     2.69269      0.06616      2.17011      0.01341      1.61743
     2.70270      0.06717      2.17671      0.01352      1.61878
     2.71271      0.06820      2.18341      0.01363      1.62013
     2.72272      0.06925      2.19021      0.01374      1.62150
     2.73273      0.07032      2.19712      0.01385      1.62288
     2.74274      0.07142      2.20413      0.01397      1.62427
     2.75275      0.07254      2.21126      0.01409      1.62567
     2.76276      0.07369      2.21849      0.01420      1.62708
     2.77277      0.07487      2.22584      0.01432      1.62850
     2.78278      0.07607      2.23330      0.01444      1.62994
     2.79279      0.07730      2.24088      0.01456      1.63138
     2.80280      0.07855      2.24858      0.01468      1.63284
     2.81281      0.07984      2.25641      0.01481      1.63432
     2.82282      0.08116      2.26437      0.01493      1.63580
     2.83283      0.08250      2.27245      0.01506      1.63730
     2.84284      0.08388      2.28067      0.01518      1.63880
     2.85285      0.08530      2.28902      0.01531      1.64033
     2.86286      0.08674      2.29751      0.01544      1.64186
     2.87287      0.08823      2.30615      0.01557      1.64341
     2.88288      0.08975      2.31493      0.01571      1.64497
     2.89289      0.09131      2.32386      0.01584      1.64654
     2.90290      0.09290      2.33295      0.01598      1.64813
     2.91291      0.09454      2.34219      0.01611      1.64973
     2.92292      0.09622      2.35159      0.01625      1.65135
     2.93293      0.09794      2.36116      0.01639      1.65298
     2.94294      0.09971      2.37090      0.01653      1.65462
     2.95295      0.10152      2.38081      0.01668      1.65628
     2.96296      0.10339      2.39091      0.01682      1.65795
     2.97297      0.10530      2.40118      0.01697      1.65963
     2.98298      0.10726      2.41164      0.01712      1.66133
     2.99299      0.10928      2.42229      0.01727      1.66305
     3.00300      0.11135      2.43315      0.01742      1.66478
     3.01301      0.11348      2.44420      0.01757      1.66653
     3.02302      0.11567      2.45547      0.01773      1.66829
     3.03303      0.11793      2.46694      0.01788      1.67006
     3.04304      0.12024      2.47864      0.01804      1.67185
     3.05305      0.12263      2.49057      0.01820      1.67366
     3.06306      0.12508      2.50273      0.01836      1.67549
     3.07307      0.12760      2.51512      0.01853      1.67733
     3.08308      0.13020      2.52777      0.01869      1.67918
     3.09309      0.13288      2.54067      0.01886      1.68106
     3.10310      0.13564      2.55383      0.01903      1.68295
     3.11311      0.13848      2.56725      0.01920      1.68485
     3.12312      0.14141      2.58096      0.01938      1.68678
     3.13313      0.14444      2.59495      0.01955      1.68872
     3.14314      0.14756      2.60923      0.01973      1.69068
     3.15315      0.15077      2.62382      0.01991      1.69265
     3.16316      0.15410      2.63872      0.02010      1.69465
     3.17317      0.15753      2.65394      0.02028      1.69666
     3.18318      0.16107      2.66949      0.02047      1.69869
     3.19319      0.16473      2.68539      0.02066      1.70074
     3.20320      0.16851      2.70164      0.02085      1.70281
     3.21321      0.17243      2.71826      0.02104      1.70490
     3.22322      0.17648      2.73525      0.02124      1.70701
     3.23323      0.18067      2.75264      0.02144      1.70914
     3.24324      0.18500      2.77042      0.02164      1.71129
     3.25325      0.18950      2.78863      0.02185      1.71345
     3.26326      0.19415      2.80726      0.02205      1.71564
     3.27327      0.19898      2.82635      0.02226      1.71785
     3.28328      0.20398      2.84589      0.02247      1.72008
     3.29329      0.20917      2.86591      0.02269      1.72233
     3.30330      0.21456      2.88643      0.02291      1.72461
     3.31331      0.22015      2.90747      0.02313      1.72690
     3.32332      0.22597      2.92903      0.02335      1.72922
     3.33333      0.23201      2.95115      0.02358      1.73156
     3.34334      0.23829      2.97384      0.02381      1.73392
     3.35335      0.24483      2.99713      0.02404      1.73630
     3.36336      0.25163      3.02104      0.02428      1.73871
     3.37337      0.25872      3.04559      0.02452      1.74114
     3.38338      0.26610      3.07080      0.02476      1.74360
     3.39339      0.27381      3.09671      0.02500      1.74607
     3.40340      0.28184      3.12334      0.02525      1.74858
     3.41341      0.29023      3.15073      0.02551      1.75111
     3.42342      0.29899      3.17889      0.02576      1.75366
     3.43343      0.30814      3.20788      0.02602      1.75624
     3.44344      0.31772      3.23771      0.02628      1.75885
     3.45345      0.32774      3.26843      0.02655      1.76148
     3.46346      0.33824      3.30007      0.02682      1.76414
     3.47347      0.34924      3.33269      0.02710      1.76682
     3.48348      0.36078      3.36631      0.02738      1.76954
     3.49349      0.37289      3.40098      0.02766      1.77228
     3.50350      0.38561      3.43676      0.02794      1.77505
     3.51351      0.39898      3.47369      0.02824      1.77784
     3.52352      0.41305      3.51183      0.02853      1.78067
     3.53353      0.42786      3.55123      0.02883      1.78353
     3.54354      0.44346      3.59196      0.02913      1.78641
     3.55355      0.45993      3.63408      0.02944      1.78933
     3.56356      0.47730      3.67766      0.02976      1.79228
     3.57357      0.49567      3.72277      0.03007      1.79525
     3.58358      0.51510      3.76948      0.03040      1.79826
     3.59359      0.53567      3.81789      0.03072      1.80131
     3.60360      0.55747      3.86808      0.03106      1.80438
     3.61361      0.58061      3.92014      0.03139      1.80749
     3.62362      0.60518      3.97416      0.03174      1.81063
     3.63363      0.63132      4.03027      0.03209      1.81381
     3.64364      0.65915      4.08855      0.03244      1.81702
     3.65365      0.68883      4.14915      0.03280      1.82027
     3.66366      0.72051      4.21218      0.03316      1.82355
     3.67367      0.75437      4.27777      0.03353      1.82687
     3.68368      0.79062      4.34607      0.03391      1.83022
     3.69369      0.82948      4.41724      0.03429      1.83361
     3.70370      0.87119      4.49144      0.03468      1.83705
     3.71371      0.91605      4.56882      0.03508      1.84052
     3.72372      0.96436      4.64958      0.03548      1.84403
     3.73373      1.01648      4.73391      0.03589      1.84758
     3.74374      1.07280      4.82200      0.03631      1.85117
     3.75375      1.13378      4.91407      0.03673      1.85480
     3.76376      1.19991      5.01032      0.03716      1.85847
     3.77377      1.27179      5.11098      0.03759      1.86219
     3.78378      1.35006      5.21627      0.03804      1.86595
     3.79379      1.43546      5.32643      0.03849      1.86975
     3.80380      1.52885      5.44166      0.03895      1.87360
     3.81381      1.63121      5.56217      0.03942      1.87750
     3.82382      1.74365      5.68815      0.03989      1.88144
     3.83383      1.86744      5.81974      0.04038      1.88543
     3.84384      2.00407      5.95703      0.04087      1.88947
     3.85385      2.15523      6.10002      0.04137      1.89355
     3.86386      2.32288      6.24861      0.04188      1.89769
     3.87387      2.50926      6.40252      0.04240      1.90188
     3.88388      2.71698      6.56124      0.04293      1.90611
     3.89389      2.94902      6.72395      0.04347      1.91041
     3.90390      3.20878      6.88941      0.04402      1.91475
     3.91391      3.50014      7.05578      0.04458      1.91915
     3.92392      3.82750      7.22046      0.04515      1.92361
     3.93393      4.19571      7.37982      0.04573      1.92812
     3.94394      4.61004      7.52884      0.04632      1.93269
     3.95395      5.07602      7.66072      0.04693      1.93732
     3.96396      5.59919      7.76640      0.04754      1.94201
     3.97397      6.18443      7.83399      0.04817      1.94676
     3.98398      6.83519      7.84819      0.04880      1.95157
     3.99399      7.55209      7.78990      0.04945      1.95644
     4.00400      8.33116      7.63614      0.05012      1.96138
     4.01401      9.16131      7.36079      0.05080      1.96639
     4.02402     10.02165      6.93655      0.05149      1.97146
     4.03403     10.87912      6.33876      0.05219      1.97660
     4.04404     11.68773      5.55106      0.05291      1.98182
     4.05405     12.39065      4.57266      0.05364      1.98710
     4.06406     12.92695      3.42479      0.05439      1.99245
     4.07407     13.24238      2.15361      0.05516      1.99788
     4.08408     13.30179      0.82632      0.05594      2.00339
     4.09409     13.09825     -0.47927      0.05673      2.00897
     4.10410     12.65508     -1.68946      0.05755      2.01463
     4.11411     12.01941     -2.74784      0.05838      2.02038
     4.12412     11.25071     -3.62200      0.05922      2.02620
     4.13413     10.40873     -4.30355      0.06009      2.03211
     4.14414      9.54489     -4.80276      0.06098      2.03810
     4.15415      8.69802     -5.14141      0.06188      2.04419
     4.16416      7.89424     -5.34621      0.06281      2.05036
     4.17417      7.14869     -5.44415      0.06376      2.05662
     4.18418      6.46825     -5.45976      0.06472      2.06298
     4.19419      5.85402     -5.41390      0.06572      2.06943
     4.20420      5.30367     -5.32354      0.06673      2.07598
     4.21421      4.81279     -5.20204      0.06776      2.08263
     4.22422      4.37609     -5.05965      0.06883      2.08939
     4.23423      3.98797     -4.90412      0.06991      2.09625
     4.24424      3.64301     -4.74120      0.07102      2.10321
     4.25425      3.33616     -4.57510      0.07216      2.11029
     4.26426      3.06283     -4.40887      0.07333      2.11747
     4.27427      2.81889     -4.24463      0.07452      2.12478
     4.28428      2.60074     -4.08387      0.07574      2.13220
     4.29429      2.40521     -3.92760      0.07700      2.13974
     4.30430      2.22955     -3.77646      0.07828      2.14740
     4.31431      2.07133     -3.63079      0.07960      2.15519
     4.32432      1.92849     -3.49079      0.08095      2.16311
     4.33433      1.79922     -3.35650      0.08234      2.17117
     4.34434      1.68195     -3.22787      0.08376      2.17936
     4.35435      1.57530     -3.10475      0.08522      2.18769
     4.36436      1.47810     -2.98700      0.08672      2.19616
     4.37437      1.38931     -2.87442      0.08826      2.20478
     4.38438      1.30802     -2.76679      0.08984      2.21355
     4.39439      1.23345     -2.66388      0.09146      2.22248
     4.40440      1.16491     -2.56547      0.09313      2.23156
     4.41441      1.10177     -2.47135      0.09484      2.24081
     4.42442      1.04351     -2.38128      0.09660      2.25022
     4.43443      0.98966     -2.29506      0.09841      2.25981
    4.444444     0.939778    -2.212479     0.100274     2.269579
    4.454454     0.893512    -2.133354     0.102191     2.279526
    4.464464     0.850523    -2.057494     0.104165     2.289661
    4.474474     0.810517    -1.984722     0.106196     2.299989
    4.484484     0.773233    -1.914873     0.108288     2.310514
    4.494494     0.738436    -1.847797     0.110443     2.321244
    4.504504     0.705913    -1.783337     0.112663     2.332183
    4.514514     0.675475    -1.721359     0.114952     2.343339
    4.524524     0.646954    -1.661733     0.117312     2.354717
    4.534534     0.620195    -1.604336     0.119747     2.366324
    4.544544     0.595059    -1.549051     0.122259     2.378168
    4.554554     0.571421    -1.495771     0.124852     2.390255
    4.564565     0.549167    -1.444391     0.127530     2.402594
    4.574574     0.528197    -1.394820     0.130296     2.415192
    4.584584     0.508413    -1.346962     0.133154     2.428057
    4.594594     0.489732    -1.300737     0.136109     2.441198
    4.604605     0.472076    -1.256064     0.139165     2.454625
    4.614614     0.455374    -1.212866     0.142326     2.468345
    4.624624     0.439561    -1.171075     0.145598     2.482370
    4.634634     0.424578    -1.130621     0.148986     2.496709
    4.644644     0.410371    -1.091444     0.152496     2.511373
    4.654655     0.396889    -1.053482     0.156134     2.526374
    4.664664     0.384086    -1.016680     0.159906     2.541724
    4.674675     0.371922    -0.980986     0.163818     2.557433
    4.684684     0.360357    -0.946349     0.167879     2.573516
    4.694695     0.349355    -0.912720     0.172095     2.589985
    4.704704     0.338885    -0.880057     0.176475     2.606856
    4.714715     0.328915    -0.848314     0.181029     2.624143
    4.724724     0.319419    -0.817455     0.185764     2.641860
    4.734735     0.310370    -0.787438     0.190691     2.660025
    4.744744     0.301745    -0.758227     0.195821     2.678655
    4.754755     0.293524    -0.729789     0.201166     2.697768
    4.764764     0.285685    -0.702090     0.206736     2.717382
    4.774775     0.278212    -0.675099     0.212547     2.737519
    4.784785     0.271087    -0.648785     0.218612     2.758199
    4.794795     0.264295    -0.623120     0.224946     2.779444
    4.804804     0.257824    -0.598078     0.231565     2.801276
    4.814815     0.251661    -0.573632     0.238488     2.823722
    4.824825     0.245795    -0.549757     0.245734     2.846807
    4.834835     0.240216    -0.526430     0.253323     2.870559
    4.844844     0.234917    -0.503629     0.261277     2.895006
    4.854855     0.229891    -0.481330     0.269620     2.920180
    4.864865     0.225132    -0.459514     0.278380     2.946113
    4.874875     0.220636    -0.438161     0.287584     2.972837
    4.884884     0.216401    -0.417252     0.297264     3.000393
    4.894895     0.212427    -0.396768     0.307453     3.028816
    4.904905     0.208715    -0.376695     0.318189     3.058149
    4.914915     0.205270    -0.357016     0.329510     3.088432
    4.924924     0.202099    -0.337719     0.341462     3.119714
    4.934935     0.199208    -0.318795     0.354093     3.152044
    4.944945     0.196610    -0.300235     0.367456     3.185472
    4.954955     0.194318    -0.282035     0.381608     3.220052
    4.964965     0.192348    -0.264200     0.396615     3.255846
    4.974975     0.190718    -0.246731     0.412547     3.292912
    4.984985     0.189448    -0.229647     0.429482     3.331318
    4.994995     0.188559    -0.212971     0.447506     3.371131
    5.005005     0.188069    -0.196739     0.466718     3.412428
    5.015015     0.187992    -0.181000     0.487223     3.455287
    5.025025     0.188333    -0.165820     0.509140     3.499788
    5.035035     0.189075    -0.151283     0.532602     3.546018
    5.045045     0.190180    -0.137480     0.557760     3.594073
    5.055055     0.191566    -0.124517     0.584781     3.644047
    5.065065     0.193106    -0.112482     0.613852     3.696042
    5.075075     0.194621    -0.101437     0.645183     3.750160
     5.08508      0.19589     -0.09138      0.67902      3.80651
     5.09509      0.19667     -0.08222      0.71562      3.86521
     5.10510      0.19675     -0.07378      0.75531      3.92637
     5.11511      0.19599     -0.06577      0.79842      3.99009
     5.12512      0.19438     -0.05787      0.84536      4.05649
     5.13514      0.19202     -0.04979      0.89658      4.12567
     5.14514      0.18912     -0.04129      0.95260      4.19771
     5.15515      0.18594     -0.03224      1.01402      4.27267
     5.16516      0.18275     -0.02261      1.08151      4.35060
     5.17518      0.17981     -0.01246      1.15586      4.43148
    5.185       0.1773       -.1893E-2     1.238        4.515   
      5.1952       0.1754       0.0089       1.3288       4.6017
     5.20520      0.17412      0.01985      1.42964      4.69055
     5.21522      0.17361      0.03069      1.54171      4.78139
     5.22522      0.17388      0.04127      1.66653      4.87349
     5.23523      0.17492      0.05140      1.80574      4.96587
     5.24524      0.17669      0.06087      1.96113      5.05715
     5.25526      0.17909      0.06946      2.13457      5.14540
     5.26526      0.18199      0.07696      2.32793      5.22805
     5.27527      0.18513      0.08317      2.54292      5.30174
     5.28528      0.18819      0.08797      2.78079      5.36216
     5.29530      0.19078      0.09131      3.04202      5.40396
     5.30531      0.19244      0.09330      3.32569      5.42087
     5.31531      0.19279      0.09424      3.62901      5.40596
     5.32533      0.19154      0.09456      3.94657      5.35235
     5.33534      0.18860      0.09481      4.27007      5.25434
     5.34535      0.18407      0.09550      4.58847      5.10899
     5.35536      0.17825      0.09705      4.88930      4.91760
     5.36537      0.17154      0.09972      5.16072      4.68675
    5.375375     0.164348     0.103595     5.394470     4.427793
    5.385385     0.157038     0.108637     5.588245     4.154668
    5.395395     0.149893     0.114708     5.746624     3.880355
    5.405405     0.143105     0.121632     5.879699     3.613345
    5.415415     0.136790     0.129223     6.000004     3.355283
    5.425425     0.131003     0.137313     6.118704     3.100579
    5.435435     0.125759     0.145759     6.242133     2.837998
    5.445445     0.121044     0.154441     6.369492     2.553519
    5.455455     0.116833     0.163268     6.491982     2.234021
    5.465465     0.113090     0.172169     6.593655     1.871123
    5.475475     0.109781     0.181093     6.654077     1.464666
    5.485486     0.106872     0.190002     6.652742     1.024552
    5.495495     0.104333     0.198868     6.574273     0.570133
    5.505505     0.102137     0.207673     6.412700     0.126629
    5.515515     0.100264     0.216404     6.173213    -0.280174
     5.52553      0.09870      0.22505      5.87062     -0.62933
     5.53553      0.09742      0.23361      5.52543     -0.90807
     5.54555      0.09644      0.24208      5.15927     -1.11244
     5.55556      0.09575      0.25045      4.79140     -1.24569
     5.56557      0.09534      0.25872      4.43672     -1.31580
     5.57558      0.09523      0.26688      4.10548     -1.33290
     5.58559      0.09544      0.27493      3.80369     -1.30748
     5.59560      0.09597      0.28284      3.53426     -1.24917
     5.60561      0.09686      0.29060      3.29788     -1.16630
     5.61562      0.09812      0.29818      3.09391     -1.06567
     5.62563      0.09979      0.30553      2.92095     -0.95276
    5.635635     0.101885     0.312600     2.777375    -0.831884
    5.645645     0.104441     0.319316     2.661548    -0.706463
    5.655655     0.107468     0.325581     2.571991    -0.579257
    5.665665     0.110962     0.331274     2.507505    -0.452621
    5.675675     0.114889     0.336249     2.467180    -0.328696
    5.685685     0.119167     0.340344     2.450380    -0.209624
     5.69570      0.12365      0.34339      2.45668     -0.09771
    5.706       0.1281       0.3452        2.486       0.4362E-2
     5.71572      0.13226      0.34581      2.53723      0.09337
    5.725725     0.135713     0.345118     2.610305     0.165440
    5.735735     0.138097     0.343318     2.703492     0.215953
    5.745746     0.139081     0.340730     2.814055     0.239649
    5.755755     0.138468     0.337795     2.937454     0.230952
    5.765765     0.136243     0.335005     3.066801     0.184664
     5.77578      0.13258      0.33281      3.19261      0.09705
     5.78579      0.12779      0.33156      3.30306     -0.03269
    5.795795     0.122245     0.331415     3.385194    -0.201079
    5.805805     0.116324     0.332423     3.426965    -0.399468
    5.815815     0.110336     0.334505     3.419823    -0.614596
    5.825826     0.104511     0.337518     3.360806    -0.830469
     5.83584      0.09900      0.34129      3.25329     -1.03133
     5.84585      0.09389      0.34567      3.10599     -1.20449
     5.85586      0.08922      0.35049      2.93072     -1.34211
     5.86587      0.08500      0.35564      2.73983     -1.44140
     5.87588      0.08119      0.36101      2.54427     -1.50371
     5.88589      0.07779      0.36652      2.35251     -1.53306
     5.89590      0.07474      0.37212      2.17036     -1.53477
     5.90591      0.07203      0.37775      2.00129     -1.51436
     5.91592      0.06961      0.38339      1.84695     -1.47693
     5.92593      0.06745      0.38902      1.70774     -1.42688
     5.93594      0.06554      0.39461      1.58324     -1.36778
     5.94595      0.06384      0.40016      1.47259     -1.30245
     5.95596      0.06233      0.40566      1.37471     -1.23306
     5.96597      0.06100      0.41111      1.28846     -1.16121
     5.97598      0.05984      0.41650      1.21272     -1.08811
     5.98599      0.05883      0.42184      1.14646     -1.01460
     5.99600      0.05796      0.42712      1.08877     -0.94129
     6.00601      0.05723      0.43235      1.03884     -0.86860
     6.01602      0.05663      0.43753      0.99599     -0.79680
     6.02603      0.05615      0.44267      0.95966     -0.72606
     6.03604      0.05581      0.44775      0.92939     -0.65649
     6.04605      0.05560      0.45280      0.90483     -0.58814
     6.05606      0.05552      0.45780      0.88573     -0.52105
     6.06607      0.05558      0.46276      0.87193     -0.45524
     6.07608      0.05579      0.46768      0.86336     -0.39075
     6.08609      0.05616      0.47256      0.86005     -0.32763
     6.09610      0.05670      0.47740      0.86208     -0.26599
     6.10611      0.05742      0.48218      0.86966     -0.20598
     6.11612      0.05836      0.48690      0.88305     -0.14788
     6.12613      0.05951      0.49154      0.90258     -0.09205
     6.13614      0.06092      0.49608      0.92865     -0.03905
     6.14615      0.06260      0.50049      0.96169      0.01036
     6.15616      0.06458      0.50473      1.00209      0.05517
     6.16617      0.06688      0.50874      1.05016      0.09401
     6.17618      0.06952      0.51246      1.10599      0.12517
     6.18619      0.07250      0.51579      1.16930      0.14653
     6.19620      0.07582      0.51863      1.23919      0.15559
     6.20621      0.07940      0.52085      1.31387      0.14966
     6.21622      0.08316      0.52232      1.39043      0.12614
     6.22623      0.08695      0.52292      1.46464      0.08301
     6.23624      0.09055      0.52256      1.53105      0.01957
     6.24625      0.09368      0.52123      1.58350     -0.06289
     6.25626      0.09604      0.51901      1.61607     -0.16060
     6.26627      0.09737      0.51613      1.62428     -0.26743
     6.27628      0.09748      0.51291      1.60626     -0.37570
     6.28629      0.09632      0.50970      1.56324     -0.47759
     6.29630      0.09397      0.50690      1.49915     -0.56657
     6.30631      0.09067      0.50478      1.41970     -0.63837
     6.31632      0.08670      0.50351      1.33102     -0.69125
     6.32633      0.08235      0.50316      1.23868     -0.72559
     6.33634      0.07787      0.50368      1.14711     -0.74320
     6.34635      0.07347      0.50498      1.05941     -0.74665
     6.35636      0.06928      0.50691      0.97748     -0.73866
     6.36637      0.06538      0.50936      0.90230     -0.72181
     6.37638      0.06181      0.51221      0.83416     -0.69834
     6.38639      0.05857      0.51534      0.77294     -0.67008
     6.39640      0.05566      0.51868      0.71824     -0.63849
     6.40641      0.05305      0.52215      0.66955     -0.60470
     6.41642      0.05072      0.52572      0.62632     -0.56956
     6.42643      0.04865      0.52933      0.58799     -0.53369
     6.43644      0.04680      0.53297      0.55403     -0.49755
     6.44645      0.04516      0.53661      0.52397     -0.46147
     6.45646      0.04369      0.54024      0.49740     -0.42567
     6.46647      0.04239      0.54384      0.47393     -0.39030
     6.47648      0.04123      0.54742      0.45326     -0.35546
     6.48649      0.04020      0.55097      0.43509     -0.32120
     6.49650      0.03929      0.55447      0.41922     -0.28754
     6.50651      0.03848      0.55795      0.40543     -0.25449
     6.51652      0.03777      0.56139      0.39358     -0.22204
     6.52653      0.03714      0.56479      0.38354     -0.19016
     6.53654      0.03661      0.56816      0.37521     -0.15882
     6.54655      0.03615      0.57150      0.36853     -0.12800
     6.55656      0.03576      0.57481      0.36344     -0.09765
     6.56657      0.03546      0.57809      0.35993     -0.06775
     6.57658      0.03522      0.58135      0.35801     -0.03827
      6.5866       0.0351       0.5846       0.3577      -0.0092
     6.59660      0.03496      0.58780      0.35907      0.01950
     6.60661      0.03495      0.59100      0.36219      0.04779
     6.61662      0.03501      0.59417      0.36717      0.07566
     6.62663      0.03515      0.59734      0.37416      0.10305
     6.63664      0.03539      0.60049      0.38333      0.12988
     6.64665      0.03571      0.60362      0.39486      0.15601
     6.65666      0.03615      0.60673      0.40900      0.18123
     6.66667      0.03669      0.60983      0.42597      0.20527
     6.67668      0.03737      0.61290      0.44604      0.22773
     6.68669      0.03818      0.61595      0.46944      0.24809
     6.69670      0.03915      0.61895      0.49636      0.26567
     6.70671      0.04030      0.62189      0.52687      0.27959
     6.71672      0.04164      0.62476      0.56084      0.28878
     6.72673      0.04319      0.62753      0.59785      0.29201
     6.73674      0.04497      0.63015      0.63702      0.28791
     6.74675      0.04701      0.63258      0.67690      0.27520
     6.75676      0.04930      0.63476      0.71541      0.25287
     6.76677      0.05184      0.63661      0.74984      0.22058
     6.77678      0.05461      0.63803      0.77715      0.17900
     6.78679      0.05754      0.63893      0.79441      0.13000
     6.79680      0.06054      0.63922      0.79944      0.07665
     6.80681      0.06347      0.63880      0.79135      0.02275
     6.81682      0.06612      0.63764      0.77079     -0.02781
     6.82683      0.06828      0.63579      0.73975     -0.07185
     6.83684      0.06972      0.63335      0.70106     -0.10726
     6.84685      0.07027      0.63056      0.65778     -0.13321
     6.85686      0.06985      0.62767      0.61267     -0.14993
     6.86687      0.06849      0.62498      0.56791     -0.15831
     6.87688      0.06632      0.62275      0.52504     -0.15965
     6.88689      0.06354      0.62113      0.48497     -0.15530
     6.89690      0.06038      0.62021      0.44820     -0.14655
     6.90691      0.05705      0.61998      0.41488     -0.13449
     6.91692      0.05373      0.62038      0.38491     -0.12004
     6.92693      0.05052      0.62132      0.35813     -0.10393
     6.93694      0.04751      0.62269      0.33428     -0.08671
     6.94695      0.04474      0.62441      0.31306     -0.06880
     6.95696      0.04222      0.62638      0.29423     -0.05052
     6.96697      0.03995      0.62854      0.27750     -0.03210
     6.97698      0.03792      0.63083      0.26265     -0.01370
    6.987       0.3611E-1    0.6332       0.2495       0.4576E-2
     6.99700      0.03450      0.63563      0.23776      0.02264
     7.00701      0.03306      0.63809      0.22737      0.04044
     7.01702      0.03179      0.64056      0.21816      0.05796
     7.02703      0.03065      0.64303      0.21001      0.07518
     7.03704      0.02965      0.64549      0.20282      0.09209
     7.04705      0.02875      0.64793      0.19650      0.10870
     7.05706      0.02795      0.65035      0.19098      0.12503
     7.06707      0.02724      0.65275      0.18621      0.14108
     7.07708      0.02662      0.65513      0.18214      0.15687
     7.08709      0.02606      0.65748      0.17873      0.17242
     7.09710      0.02557      0.65981      0.17596      0.18775
     7.10711      0.02514      0.66212      0.17380      0.20289
     7.11712      0.02477      0.66440      0.17226      0.21784
     7.12713      0.02445      0.66666      0.17132      0.23263
     7.13714      0.02418      0.66891      0.17101      0.24726
     7.14715      0.02396      0.67114      0.17134      0.26177
     7.15716      0.02379      0.67335      0.17235      0.27615
     7.16717      0.02366      0.67555      0.17406      0.29041
     7.17718      0.02358      0.67773      0.17653      0.30455
     7.18719      0.02355      0.67991      0.17983      0.31856
     7.19720      0.02357      0.68207      0.18402      0.33241
     7.20721      0.02363      0.68423      0.18921      0.34607
     7.21722      0.02375      0.68638      0.19549      0.35948
     7.22723      0.02393      0.68853      0.20298      0.37255
     7.23724      0.02416      0.69067      0.21181      0.38515
     7.24725      0.02447      0.69280      0.22213      0.39711
     7.25726      0.02485      0.69493      0.23406      0.40819
     7.26727      0.02531      0.69705      0.24773      0.41810
     7.27728      0.02586      0.69916      0.26323      0.42642
     7.28729      0.02651      0.70125      0.28055      0.43266
     7.29730      0.02728      0.70332      0.29959      0.43621
     7.30731      0.02817      0.70535      0.32003      0.43639
     7.31732      0.02920      0.70734      0.34131      0.43249
     7.32733      0.03039      0.70927      0.36255      0.42387
     7.33734      0.03176      0.71109      0.38250      0.41010
     7.34735      0.03331      0.71279      0.39968      0.39121
     7.35736      0.03505      0.71432      0.41245      0.36777
     7.36737      0.03699      0.71561      0.41941      0.34103
     7.37738      0.03911      0.71661      0.41965      0.31279
     7.38739      0.04138      0.71724      0.41302      0.28511
     7.39740      0.04373      0.71742      0.40016      0.25992
     7.40741      0.04605      0.71709      0.38233      0.23869
     7.41742      0.04823      0.71619      0.36111      0.22226
     7.42743      0.05008      0.71475      0.33806      0.21082
     7.43744      0.05144      0.71281      0.31452      0.20410
     7.44745      0.05215      0.71054      0.29151      0.20151
     7.45746      0.05212      0.70812      0.26970      0.20236
     7.46747      0.05135      0.70579      0.24948      0.20593
     7.47748      0.04991      0.70374      0.23102      0.21159
     7.48749      0.04795      0.70214      0.21435      0.21880
     7.49750      0.04562      0.70106      0.19940      0.22711
     7.50751      0.04312      0.70053      0.18606      0.23618
     7.51752      0.04057      0.70051      0.17419      0.24575
     7.52753      0.03808      0.70093      0.16364      0.25561
     7.53754      0.03573      0.70171      0.15426      0.26563
     7.54755      0.03355      0.70279      0.14594      0.27568
     7.55756      0.03157      0.70408      0.13854      0.28571
     7.56757      0.02978      0.70555      0.13196      0.29566
     7.57758      0.02817      0.70712      0.12611      0.30549
     7.58759      0.02674      0.70878      0.12091      0.31518
     7.59760      0.02547      0.71049      0.11629      0.32472
     7.60761      0.02434      0.71223      0.11219      0.33411
     7.61762      0.02333      0.71398      0.10856      0.34333
     7.62763      0.02244      0.71574      0.10535      0.35241
     7.63764      0.02165      0.71750      0.10253      0.36133
     7.64765      0.02094      0.71924      0.10008      0.37011
     7.65766      0.02032      0.72098      0.09795      0.37877
     7.66767      0.01976      0.72270      0.09615      0.38730
     7.67768      0.01927      0.72440      0.09464      0.39572
     7.68769      0.01883      0.72608      0.09343      0.40403
     7.69770      0.01845      0.72775      0.09250      0.41226
     7.70771      0.01811      0.72940      0.09185      0.42041
     7.71772      0.01782      0.73104      0.09149      0.42848
     7.72773      0.01756      0.73266      0.09141      0.43650
     7.73774      0.01734      0.73426      0.09163      0.44446
     7.74775      0.01716      0.73586      0.09217      0.45237
     7.75776      0.01701      0.73744      0.09303      0.46024
     7.76777      0.01689      0.73901      0.09425      0.46808
     7.77778      0.01681      0.74058      0.09585      0.47587
     7.78779      0.01676      0.74213      0.09787      0.48361
     7.79780      0.01674      0.74368      0.10035      0.49130
     7.80781      0.01675      0.74523      0.10335      0.49891
     7.81782      0.01680      0.74677      0.10691      0.50641
     7.82783      0.01689      0.74831      0.11111      0.51377
     7.83784      0.01702      0.74984      0.11601      0.52091
     7.84785      0.01718      0.75138      0.12170      0.52775
     7.85786      0.01740      0.75291      0.12825      0.53417
     7.86787      0.01766      0.75444      0.13574      0.54001
     7.87788      0.01798      0.75597      0.14423      0.54508
     7.88789      0.01836      0.75749      0.15373      0.54910
     7.89790      0.01880      0.75901      0.16421      0.55176
     7.90791      0.01933      0.76053      0.17555      0.55269
     7.91792      0.01994      0.76202      0.18750      0.55149
     7.92793      0.02064      0.76350      0.19961      0.54778
     7.93794      0.02146      0.76494      0.21127      0.54126
     7.94795      0.02239      0.76633      0.22169      0.53185
     7.95796      0.02346      0.76766      0.22997      0.51973
     7.96797      0.02467      0.76890      0.23526      0.50548
     7.97798      0.02603      0.77001      0.23692      0.49000
     7.98799      0.02754      0.77095      0.23470      0.47440
     7.99800      0.02920      0.77167      0.22881      0.45983
     8.00801      0.03098      0.77211      0.21983      0.44723
     8.01802      0.03284      0.77222      0.20862      0.43718
     8.02803      0.03469      0.77193      0.19605      0.42994
     8.03804      0.03645      0.77121      0.18296      0.42543
     8.04805      0.03798      0.77005      0.16997      0.42338
     8.05806      0.03915      0.76850      0.15753      0.42340
     8.06807      0.03983      0.76665      0.14591      0.42510
     8.07808      0.03995      0.76466      0.13525      0.42810
     8.08809      0.03947      0.76271      0.12559      0.43207
     8.09810      0.03845      0.76095      0.11691      0.43676
     8.10811      0.03699      0.75952      0.10915      0.44194
     8.11812      0.03523      0.75850      0.10224      0.44745
     8.12813      0.03329      0.75791      0.09610      0.45316
     8.13814      0.03131      0.75772      0.09065      0.45900
     8.14815      0.02935      0.75790      0.08580      0.46488
     8.15816      0.02750      0.75837      0.08149      0.47076
     8.16817      0.02578      0.75909      0.07767      0.47661
     8.17818      0.02420      0.75999      0.07426      0.48240
     8.18819      0.02278      0.76103      0.07123      0.48812
     8.19820      0.02150      0.76217      0.06854      0.49375
     8.20821      0.02036      0.76338      0.06614      0.49931
     8.21822      0.01935      0.76463      0.06401      0.50477
     8.22823      0.01845      0.76591      0.06213      0.51015
     8.23824      0.01766      0.76721      0.06046      0.51545
     8.24825      0.01695      0.76851      0.05900      0.52066
     8.25826      0.01632      0.76981      0.05772      0.52581
     8.26827      0.01576      0.77111      0.05662      0.53088
     8.27828      0.01527      0.77239      0.05568      0.53589
     8.28829      0.01483      0.77367      0.05490      0.54084
     8.29830      0.01444      0.77493      0.05427      0.54574
     8.30831      0.01410      0.77619      0.05379      0.55059
     8.31832      0.01380      0.77743      0.05346      0.55540
     8.32833      0.01353      0.77865      0.05327      0.56017
     8.33834      0.01329      0.77987      0.05323      0.56492
     8.34835      0.01309      0.78107      0.05334      0.56964
     8.35836      0.01292      0.78227      0.05362      0.57434
     8.36837      0.01277      0.78345      0.05407      0.57902
     8.37838      0.01265      0.78463      0.05470      0.58369
     8.38839      0.01255      0.78580      0.05552      0.58834
     8.39840      0.01248      0.78696      0.05656      0.59298
     8.40841      0.01243      0.78811      0.05784      0.59761
     8.41842      0.01241      0.78927      0.05938      0.60221
     8.42843      0.01241      0.79041      0.06121      0.60677
     8.43844      0.01243      0.79156      0.06337      0.61128
     8.44845      0.01248      0.79270      0.06589      0.61572
     8.45846      0.01256      0.79385      0.06882      0.62004
     8.46847      0.01267      0.79499      0.07220      0.62420
     8.47848      0.01280      0.79613      0.07608      0.62814
     8.48849      0.01298      0.79727      0.08050      0.63175
     8.49850      0.01319      0.79841      0.08551      0.63493
     8.50851      0.01344      0.79956      0.09112      0.63752
     8.51852      0.01374      0.80070      0.09732      0.63935
     8.52853      0.01409      0.80184      0.10404      0.64019
     8.53854      0.01449      0.80297      0.11115      0.63981
     8.54855      0.01497      0.80410      0.11841      0.63797
     8.55856      0.01551      0.80522      0.12547      0.63450
     8.56857      0.01614      0.80631      0.13187      0.62931
     8.57858      0.01686      0.80737      0.13710      0.62248
     8.58859      0.01767      0.80839      0.14062      0.61431
     8.59860      0.01860      0.80934      0.14203      0.60531
     8.60861      0.01965      0.81020      0.14115      0.59613
     8.61862      0.02082      0.81095      0.13804      0.58744
     8.62863      0.02211      0.81154      0.13301      0.57985
     8.63864      0.02351      0.81193      0.12657      0.57373
     8.64865      0.02498      0.81206      0.11923      0.56928
     8.65866      0.02648      0.81191      0.11150      0.56647
     8.66867      0.02794      0.81141      0.10377      0.56515
     8.67868      0.02926      0.81057      0.09632      0.56511
     8.68869      0.03033      0.80940      0.08935      0.56612
     8.69870      0.03106      0.80795      0.08293      0.56793
     8.70871      0.03135      0.80634      0.07711      0.57036
     8.71872      0.03117      0.80469      0.07187      0.57324
     8.72873      0.03053      0.80315      0.06718      0.57643
     8.73874      0.02951      0.80184      0.06301      0.57984
     8.74875      0.02820      0.80083      0.05930      0.58338
     8.75876      0.02670      0.80016      0.05600      0.58700
     8.76877      0.02513      0.79983      0.05308      0.59066
     8.77878      0.02356      0.79980      0.05048      0.59432
     8.78879      0.02205      0.80004      0.04817      0.59796
     8.79880      0.02063      0.80049      0.04611      0.60158
     8.80881      0.01933      0.80110      0.04428      0.60515
     8.81882      0.01815      0.80184      0.04265      0.60868
     8.82883      0.01709      0.80267      0.04121      0.61216
     8.83884      0.01615      0.80357      0.03992      0.61559
     8.84885      0.01530      0.80451      0.03878      0.61897
     8.85886      0.01456      0.80548      0.03777      0.62230
     8.86887      0.01389      0.80646      0.03688      0.62558
     8.87888      0.01330      0.80746      0.03610      0.62882
     8.88889      0.01278      0.80845      0.03543      0.63202
     8.89890      0.01232      0.80945      0.03485      0.63518
     8.90891      0.01191      0.81043      0.03436      0.63830
     8.91892      0.01155      0.81141      0.03396      0.64140
     8.92893      0.01123      0.81238      0.03364      0.64446
     8.93894      0.01094      0.81335      0.03341      0.64750
     8.94895      0.01069      0.81430      0.03327      0.65052
     8.95896      0.01047      0.81524      0.03320      0.65352
     8.96897      0.01027      0.81617      0.03322      0.65651
     8.97898      0.01010      0.81710      0.03334      0.65949
      8.9890       0.0100       0.8180       0.0335       0.6625
      8.9990       0.0098       0.8189       0.0338       0.6654
      9.0090       0.0097       0.8198       0.0343       0.6684
      9.0190       0.0096       0.8207       0.0348       0.6713
      9.0290       0.0096       0.8216       0.0354       0.6743
      9.0390       0.0095       0.8225       0.0362       0.6772
      9.0490       0.0095       0.8234       0.0372       0.6801
      9.0591       0.0095       0.8243       0.0383       0.6831
      9.0691       0.0095       0.8251       0.0396       0.6860
      9.0791       0.0095       0.8260       0.0411       0.6888
      9.0891       0.0096       0.8269       0.0429       0.6916
      9.0991       0.0096       0.8278       0.0449       0.6943
      9.1091       0.0097       0.8287       0.0473       0.6969
      9.1191       0.0099       0.8295       0.0500       0.6993
     9.12913      0.01000      0.83041      0.05299      0.70149
     9.13914      0.01017      0.83129      0.05639      0.70333
     9.14915      0.01038      0.83217      0.06016      0.70474
     9.15916      0.01062      0.83305      0.06428      0.70559
     9.16917      0.01090      0.83393      0.06868      0.70574
     9.17918      0.01123      0.83481      0.07323      0.70503
     9.18919      0.01161      0.83568      0.07775      0.70333
     9.19920      0.01204      0.83654      0.08197      0.70057
     9.20921      0.01254      0.83739      0.08557      0.69674
     9.21922      0.01312      0.83822      0.08823      0.69200
     9.22923      0.01377      0.83901      0.08965      0.68660
     9.23924      0.01451      0.83975      0.08965      0.68094
     9.24925      0.01534      0.84043      0.08822      0.67543
     9.25926      0.01628      0.84102      0.08551      0.67048
     9.26927      0.01731      0.84149      0.08178      0.66638
     9.27928      0.01843      0.84181      0.07737      0.66329
     9.28929      0.01961      0.84193      0.07260      0.66125
     9.29930      0.02084      0.84182      0.06774      0.66019
     9.30931      0.02204      0.84145      0.06301      0.65999
     9.31932      0.02314      0.84079      0.05854      0.66050
     9.32933      0.02407      0.83986      0.05440      0.66156
     9.33934      0.02473      0.83869      0.05062      0.66306
     9.34935      0.02505      0.83737      0.04721      0.66487
     9.35936      0.02500      0.83600      0.04416      0.66691
     9.36937      0.02456      0.83469      0.04144      0.66910
     9.37938      0.02380      0.83354      0.03902      0.67140
     9.38939      0.02278      0.83264      0.03688      0.67376
     9.39940      0.02160      0.83200      0.03497      0.67615
     9.40941      0.02034      0.83164      0.03327      0.67856
     9.41942      0.01906      0.83154      0.03177      0.68095
     9.42943      0.01783      0.83166      0.03043      0.68334
     9.43944      0.01667      0.83196      0.02924      0.68570
     9.44945      0.01559      0.83240      0.02818      0.68803
     9.45946      0.01462      0.83295      0.02724      0.69033
     9.46947      0.01374      0.83358      0.02640      0.69261
     9.47948      0.01296      0.83427      0.02566      0.69485
     9.48949      0.01226      0.83500      0.02500      0.69706
     9.49950      0.01164      0.83575      0.02442      0.69924
     9.50951      0.01110      0.83652      0.02391      0.70139
     9.51952      0.01061      0.83730      0.02347      0.70352
     9.52953      0.01018      0.83808      0.02308      0.70562
      9.5395       0.0098       0.8389       0.0228       0.7077
    9.550       0.9459E-2    0.8396       0.2249E-1    0.7098   
    9.560       0.9160E-2    0.8404       0.2227E-1    0.7118   
    9.570       0.8894E-2    0.8412       0.2210E-1    0.7138   
    9.580       0.8660E-2    0.8419       0.2199E-1    0.7159   
    9.590       0.8452E-2    0.8427       0.2192E-1    0.7179   
    9.600       0.8270E-2    0.8434       0.2191E-1    0.7198   
    9.610       0.8109E-2    0.8441       0.2195E-1    0.7218   
    9.620       0.7970E-2    0.8449       0.2205E-1    0.7238   
    9.630       0.7849E-2    0.8456       0.2220E-1    0.7258   
    9.640       0.7746E-2    0.8463       0.2242E-1    0.7278   
    9.650       0.7659E-2    0.8470       0.2270E-1    0.7297   
    9.660       0.7589E-2    0.8477       0.2306E-1    0.7317   
    9.670       0.7533E-2    0.8484       0.2350E-1    0.7337   
    9.680       0.7492E-2    0.8491       0.2402E-1    0.7357   
    9.690       0.7466E-2    0.8498       0.2465E-1    0.7376   
    9.700       0.7454E-2    0.8505       0.2538E-1    0.7396   
    9.710       0.7457E-2    0.8512       0.2624E-1    0.7415   
    9.720       0.7475E-2    0.8519       0.2723E-1    0.7434   
    9.730       0.7508E-2    0.8526       0.2838E-1    0.7453   
    9.740       0.7558E-2    0.8533       0.2970E-1    0.7472   
    9.750       0.7626E-2    0.8540       0.3122E-1    0.7489   
    9.760       0.7712E-2    0.8546       0.3294E-1    0.7506   
    9.770       0.7818E-2    0.8553       0.3490E-1    0.7521   
    9.780       0.7946E-2    0.8560       0.3710E-1    0.7534   
    9.790       0.8099E-2    0.8567       0.3954E-1    0.7544   
    9.800       0.8279E-2    0.8574       0.4221E-1    0.7551   
    9.810       0.8489E-2    0.8581       0.4508E-1    0.7553   
    9.820       0.8732E-2    0.8588       0.4806E-1    0.7550   
    9.830       0.9014E-2    0.8595       0.5104E-1    0.7541   
    9.840       0.9338E-2    0.8602       0.5386E-1    0.7525   
    9.850       0.9711E-2    0.8609       0.5630E-1    0.7501   
     9.85986      0.01014      0.86154      0.05816      0.74718
     9.86987      0.01062      0.86219      0.05924      0.74376
     9.87988      0.01118      0.86281      0.05940      0.74013
     9.88989      0.01181      0.86338      0.05861      0.73656
     9.89990      0.01251      0.86390      0.05697      0.73331
     9.90991      0.01330      0.86435      0.05462      0.73060
     9.91992      0.01417      0.86469      0.05180      0.72854
     9.92993      0.01510      0.86489      0.04871      0.72717
     9.93994      0.01609      0.86493      0.04554      0.72645
     9.94995      0.01710      0.86478      0.04243      0.72630
     9.95996      0.01808      0.86440      0.03947      0.72664
     9.96997      0.01897      0.86379      0.03673      0.72736
     9.97998      0.01970      0.86296      0.03422      0.72837
     9.98999      0.02019      0.86195      0.03196      0.72960
    10.00000      0.02040      0.86083      0.02994      0.73099
# 
# 11/06/2019 at 14:19 YAMBO @ dufour [start]
# 11/06/2019 at 14:19                [end]
#  
# Timing   [Min/Max/Average]: 48s/48s/48s
#
# .-Input file : Outputs/00_bse_plus_rim_00_bse_plus_rim.in
# | optics                         # [R OPT] Optics
# | bse                            # [R BSE] Bethe Salpeter Equation.
# | bsk                            # [R BSK] Bethe Salpeter Equation kernel
# | bss                            # [R BSS] Bethe Salpeter Equation solver
# | em1s                           # [R Xs] Static Inverse Dielectric Matrix
# | rim_cut                        # [R RIM CUT] Coulomb potential
# | BoseTemp= 0.000000     eV      # Bosonic Temperature
# | X_Threads= 1                   # [OPENMP/X] Number of threads for response functions
# | DIP_Threads= 1                 # [OPENMP/X] Number of threads for dipoles
# | K_Threads= 1                   # [OPENMP/BSK] Number of threads for response functions
# | RandQpts= 1000000              # [RIM] Number of random q-points in the BZ
# | RandGvec= 1            RL      # [RIM] Coulomb interaction RS components
# | CUTGeo= "none"                 # [CUT] Coulomb Cutoff geometry: box/cylinder/sphere/ws X/Y/Z/XY..
# | % CUTBox
# |  0.00     | 0.00     | 0.00     |        # [CUT] [au] Box sides
# | %
# | CUTRadius= 0.000000            # [CUT] [au] Sphere/Cylinder radius
# | CUTCylLen= 0.000000            # [CUT] [au] Cylinder length
# | CUTwsGvec= 0.000000            # [CUT] WS cutoff: number of G to be modified
# | Chimod= "HARTREE"              # [X] IP/Hartree/ALDA/LRC/PF/BSfxc
# | BSEmod= "retarded"             # [BSE] resonant/retarded/coupling
# | BSKmod= "SEX"                  # [BSE] IP/Hartree/HF/ALDA/SEX
# | BSSmod= "d"                    # [BSS] (h)aydock/(d)iagonalization/(i)nversion/(t)ddft`
# | BSENGexx=  4535        RL      # [BSK] Exchange components
# | BSENGBlk= 111          RL      # [BSK] Screened interaction block size
# | #WehCpl                        # [BSK] eh interaction included also in coupling
# | % KfnQP_E
# |  3.500000 | 1.000000 | 1.000000 |        # [EXTQP BSK BSS] E parameters  (c/v) eV|adim|adim
# | %
# | % BEnRange
# |   0.00000 | 10.00000 | eV      # [BSS] Energy range
# | %
# | % BDmRange
# |   0.10000 |  0.10000 | eV      # [BSS] Damping range
# | %
# | BEnSteps= 1000                 # [BSS] Energy steps
# | % BLongDir
# | 0.1000E-4 | 0.000    | 0.000    |        # [BSS] [cc] Electric Field
# | %
# | % BSEBands
# |  1 | 2 |                       # [BSK] Bands range
# | %
# | WRbsWF                         # [BSS] Write to disk excitonic the WFs
# | % BndsRnXs
# |   1 | 20 |                     # [Xs] Polarization function bands
# | %
# | NGsBlkXs= 111          RL      # [Xs] Response block size
# | % DmRngeXs
# |   0.10000 |  0.10000 | eV      # [Xs] Damping range
# | %
# | % LongDrXs
# | 0.1000E-4 | 0.000    | 0.000    |        # [Xs] [cc] Electric Field
# | %
