#                                                           
# ooooo   oooo ..     ooo        ooo ooooooooo.    .oooo.   
#  `88.   .8" .88.    `88.       .88 `88"   `Y8b  dP"  `Yb  
#   `88. .8" .8"88.    888b     d"88  88     888 88      88 
#    `88.8" .8" `88.   8 Y88. .P  88  88oooo888" 88      88 
#     `88" .88ooo888.  8  `888"   88  88    `88b 88      88 
#      88 .8"     `88. 8    Y     88  88    .88P `8b    d8" 
#     o88o88o      888o8          88 o88bood8P"   `Ybod8P"  
#                                                           
#                                                           
# GPL Version 4.4.0 Revision 148. (Based on r.16920 h.961a8d
#                   MPI+SLK+OpenMP Build                    
#                 http://www.yambo-code.org                 
#
# Absorption @ Q(1) [q->0 direction] :0.1000E-4  0.000     0.000   
#
#
# - Energies      are  Analyt. E
# - Wavefunctions are +AMGB (for 2D systems)(C)
#
# - The Green`s function is Retarded -
# - Using the Length Gauge -
# - [r,Vnl] *is* included -
#
#
#    E/ev[1]      EPS-Im[2]    EPS-Re[3]    EPSo-Im[4]   EPSo-Re[5]
#
    0.000000     0.000000     1.443950     0.000000     1.478824
   0.1001E-1    0.2452E-4     1.444       0.2954E-4     1.479   
   0.2002E-1    0.4904E-4     1.444       0.5908E-4     1.479   
   0.3003E-1    0.7356E-4     1.444       0.8862E-4     1.479   
   0.4004E-1    0.9809E-4     1.444       0.1182E-3     1.479   
   0.5005E-1    0.1226E-3     1.444       0.1477E-3     1.479   
   0.6006E-1    0.1472E-3     1.444       0.1773E-3     1.479   
   0.7007E-1    0.1717E-3     1.444       0.2068E-3     1.479   
   0.8008E-1    0.1962E-3     1.444       0.2364E-3     1.479   
   0.9009E-1    0.2208E-3     1.444       0.2660E-3     1.479   
   0.1001       0.2453E-3     1.444       0.2956E-3     1.479   
   0.1101       0.2699E-3     1.444       0.3252E-3     1.479   
   0.1201       0.2945E-3     1.444       0.3548E-3     1.479   
   0.1301       0.3191E-3     1.444       0.3844E-3     1.479   
   0.1401       0.3437E-3     1.444       0.4141E-3     1.479   
   0.1502       0.3683E-3     1.444       0.4437E-3     1.479   
   0.1602       0.3929E-3     1.444       0.4734E-3     1.479   
   0.1702       0.4175E-3     1.444       0.5031E-3     1.479   
   0.1802       0.4422E-3     1.444       0.5328E-3     1.479   
   0.1902       0.4669E-3     1.444       0.5625E-3     1.479   
   0.2002       0.4916E-3     1.444       0.5923E-3     1.479   
   0.2102       0.5163E-3     1.444       0.6221E-3     1.479   
   0.2202       0.5410E-3     1.445       0.6519E-3     1.480   
   0.2302       0.5657E-3     1.445       0.6817E-3     1.480   
   0.2402       0.5905E-3     1.445       0.7115E-3     1.480   
   0.2503       0.6152E-3     1.445       0.7414E-3     1.480   
   0.2603       0.6400E-3     1.445       0.7713E-3     1.480   
   0.2703       0.6649E-3     1.445       0.8012E-3     1.480   
   0.2803       0.6897E-3     1.445       0.8312E-3     1.480   
   0.2903       0.7146E-3     1.445       0.8612E-3     1.480   
   0.3003       0.7395E-3     1.445       0.8912E-3     1.480   
   0.3103       0.7644E-3     1.445       0.9213E-3     1.480   
   0.3203       0.7893E-3     1.445       0.9514E-3     1.480   
   0.3303       0.8143E-3     1.445       0.9815E-3     1.480   
   0.3403       0.8393E-3     1.445       0.1012E-2     1.481   
   0.3504       0.8644E-3     1.445       0.1042E-2     1.481   
   0.3604       0.8894E-3     1.446       0.1072E-2     1.481   
   0.3704       0.9145E-3     1.446       0.1102E-2     1.481   
   0.3804       0.9397E-3     1.446       0.1133E-2     1.481   
   0.3904       0.9648E-3     1.446       0.1163E-2     1.481   
   0.4004       0.9900E-3     1.446       0.1194E-2     1.481   
   0.4104       0.1015E-2     1.446       0.1224E-2     1.481   
   0.4204       0.1041E-2     1.446       0.1255E-2     1.481   
   0.4304       0.1066E-2     1.446       0.1285E-2     1.482   
   0.4404       0.1091E-2     1.446       0.1316E-2     1.482   
   0.4505       0.1117E-2     1.446       0.1346E-2     1.482   
   0.4605       0.1142E-2     1.447       0.1377E-2     1.482   
   0.4705       0.1167E-2     1.447       0.1408E-2     1.482   
   0.4805       0.1193E-2     1.447       0.1439E-2     1.482   
   0.4905       0.1218E-2     1.447       0.1470E-2     1.482   
   0.5005       0.1244E-2     1.447       0.1501E-2     1.483   
   0.5105       0.1270E-2     1.447       0.1532E-2     1.483   
   0.5205       0.1295E-2     1.447       0.1563E-2     1.483   
   0.5305       0.1321E-2     1.447       0.1594E-2     1.483   
   0.5405       0.1347E-2     1.448       0.1625E-2     1.483   
   0.5506       0.1373E-2     1.448       0.1656E-2     1.483   
   0.5606       0.1399E-2     1.448       0.1687E-2     1.484   
   0.5706       0.1424E-2     1.448       0.1719E-2     1.484   
   0.5806       0.1450E-2     1.448       0.1750E-2     1.484   
   0.5906       0.1476E-2     1.448       0.1782E-2     1.484   
      0.6006       0.0015       1.4484       0.0018       1.4842
      0.6106       0.0015       1.4486       0.0018       1.4844
      0.6206       0.0016       1.4487       0.0019       1.4846
      0.6306       0.0016       1.4489       0.0019       1.4848
      0.6406       0.0016       1.4490       0.0019       1.4850
      0.6507       0.0016       1.4492       0.0020       1.4851
      0.6607       0.0017       1.4494       0.0020       1.4853
      0.6707       0.0017       1.4495       0.0020       1.4855
      0.6807       0.0017       1.4497       0.0021       1.4858
      0.6907       0.0017       1.4499       0.0021       1.4860
      0.7007       0.0018       1.4500       0.0021       1.4862
      0.7107       0.0018       1.4502       0.0022       1.4864
      0.7207       0.0018       1.4504       0.0022       1.4866
      0.7307       0.0018       1.4506       0.0022       1.4868
      0.7407       0.0019       1.4508       0.0023       1.4871
      0.7508       0.0019       1.4510       0.0023       1.4873
      0.7608       0.0019       1.4512       0.0023       1.4875
      0.7708       0.0020       1.4513       0.0024       1.4877
      0.7808       0.0020       1.4515       0.0024       1.4880
      0.7908       0.0020       1.4517       0.0024       1.4882
      0.8008       0.0020       1.4519       0.0025       1.4885
      0.8108       0.0021       1.4521       0.0025       1.4887
      0.8208       0.0021       1.4524       0.0025       1.4890
      0.8308       0.0021       1.4526       0.0026       1.4892
      0.8408       0.0021       1.4528       0.0026       1.4895
      0.8509       0.0022       1.4530       0.0026       1.4897
      0.8609       0.0022       1.4532       0.0027       1.4900
      0.8709       0.0022       1.4534       0.0027       1.4903
      0.8809       0.0023       1.4537       0.0027       1.4905
      0.8909       0.0023       1.4539       0.0028       1.4908
      0.9009       0.0023       1.4541       0.0028       1.4911
      0.9109       0.0023       1.4544       0.0028       1.4914
      0.9209       0.0024       1.4546       0.0029       1.4917
      0.9309       0.0024       1.4548       0.0029       1.4920
      0.9409       0.0024       1.4551       0.0029       1.4922
      0.9510       0.0025       1.4553       0.0030       1.4925
      0.9610       0.0025       1.4556       0.0030       1.4928
      0.9710       0.0025       1.4558       0.0030       1.4931
      0.9810       0.0025       1.4561       0.0031       1.4934
      0.9910       0.0026       1.4563       0.0031       1.4938
      1.0010       0.0026       1.4566       0.0032       1.4941
      1.0110       0.0026       1.4568       0.0032       1.4944
      1.0210       0.0027       1.4571       0.0032       1.4947
      1.0310       0.0027       1.4574       0.0033       1.4950
      1.0410       0.0027       1.4576       0.0033       1.4954
      1.0511       0.0027       1.4579       0.0033       1.4957
      1.0611       0.0028       1.4582       0.0034       1.4960
      1.0711       0.0028       1.4585       0.0034       1.4964
      1.0811       0.0028       1.4587       0.0034       1.4967
      1.0911       0.0029       1.4590       0.0035       1.4971
      1.1011       0.0029       1.4593       0.0035       1.4974
      1.1111       0.0029       1.4596       0.0036       1.4978
      1.1211       0.0030       1.4599       0.0036       1.4981
      1.1311       0.0030       1.4602       0.0036       1.4985
      1.1411       0.0030       1.4605       0.0037       1.4988
      1.1512       0.0031       1.4608       0.0037       1.4992
      1.1612       0.0031       1.4611       0.0037       1.4996
      1.1712       0.0031       1.4614       0.0038       1.4999
      1.1812       0.0031       1.4617       0.0038       1.5003
      1.1912       0.0032       1.4621       0.0039       1.5007
      1.2012       0.0032       1.4624       0.0039       1.5011
      1.2112       0.0032       1.4627       0.0039       1.5015
      1.2212       0.0033       1.4630       0.0040       1.5019
      1.2312       0.0033       1.4633       0.0040       1.5023
      1.2412       0.0033       1.4637       0.0040       1.5027
      1.2513       0.0034       1.4640       0.0041       1.5031
      1.2613       0.0034       1.4644       0.0041       1.5035
      1.2713       0.0034       1.4647       0.0042       1.5039
      1.2813       0.0035       1.4650       0.0042       1.5043
      1.2913       0.0035       1.4654       0.0042       1.5048
      1.3013       0.0035       1.4657       0.0043       1.5052
      1.3113       0.0036       1.4661       0.0043       1.5056
      1.3213       0.0036       1.4664       0.0044       1.5060
      1.3313       0.0036       1.4668       0.0044       1.5065
      1.3413       0.0037       1.4672       0.0044       1.5069
      1.3514       0.0037       1.4675       0.0045       1.5074
      1.3614       0.0037       1.4679       0.0045       1.5078
      1.3714       0.0038       1.4683       0.0046       1.5083
      1.3814       0.0038       1.4687       0.0046       1.5087
      1.3914       0.0038       1.4690       0.0047       1.5092
      1.4014       0.0039       1.4694       0.0047       1.5097
      1.4114       0.0039       1.4698       0.0047       1.5101
      1.4214       0.0039       1.4702       0.0048       1.5106
      1.4314       0.0040       1.4706       0.0048       1.5111
      1.4414       0.0040       1.4710       0.0049       1.5116
      1.4515       0.0040       1.4714       0.0049       1.5121
      1.4615       0.0041       1.4718       0.0050       1.5126
      1.4715       0.0041       1.4722       0.0050       1.5131
      1.4815       0.0041       1.4726       0.0050       1.5136
      1.4915       0.0042       1.4730       0.0051       1.5141
      1.5015       0.0042       1.4735       0.0051       1.5146
      1.5115       0.0042       1.4739       0.0052       1.5151
      1.5215       0.0043       1.4743       0.0052       1.5156
      1.5315       0.0043       1.4747       0.0053       1.5161
      1.5415       0.0044       1.4752       0.0053       1.5167
      1.5516       0.0044       1.4756       0.0054       1.5172
      1.5616       0.0044       1.4761       0.0054       1.5178
      1.5716       0.0045       1.4765       0.0055       1.5183
      1.5816       0.0045       1.4769       0.0055       1.5188
      1.5916       0.0045       1.4774       0.0055       1.5194
      1.6016       0.0046       1.4779       0.0056       1.5199
      1.6116       0.0046       1.4783       0.0056       1.5205
      1.6216       0.0047       1.4788       0.0057       1.5211
      1.6316       0.0047       1.4792       0.0057       1.5216
      1.6416       0.0047       1.4797       0.0058       1.5222
      1.6517       0.0048       1.4802       0.0058       1.5228
      1.6617       0.0048       1.4807       0.0059       1.5234
      1.6717       0.0049       1.4812       0.0059       1.5240
      1.6817       0.0049       1.4816       0.0060       1.5246
      1.6917       0.0049       1.4821       0.0060       1.5252
      1.7017       0.0050       1.4826       0.0061       1.5258
      1.7117       0.0050       1.4831       0.0061       1.5264
      1.7217       0.0051       1.4836       0.0062       1.5270
      1.7317       0.0051       1.4841       0.0062       1.5276
      1.7417       0.0051       1.4847       0.0063       1.5283
      1.7518       0.0052       1.4852       0.0063       1.5289
      1.7618       0.0052       1.4857       0.0064       1.5295
      1.7718       0.0053       1.4862       0.0064       1.5302
      1.7818       0.0053       1.4867       0.0065       1.5308
      1.7918       0.0053       1.4873       0.0066       1.5315
      1.8018       0.0054       1.4878       0.0066       1.5321
      1.8118       0.0054       1.4883       0.0067       1.5328
      1.8218       0.0055       1.4889       0.0067       1.5335
      1.8318       0.0055       1.4894       0.0068       1.5341
      1.8418       0.0056       1.4900       0.0068       1.5348
      1.8519       0.0056       1.4906       0.0069       1.5355
      1.8619       0.0056       1.4911       0.0069       1.5362
      1.8719       0.0057       1.4917       0.0070       1.5369
      1.8819       0.0057       1.4923       0.0070       1.5376
      1.8919       0.0058       1.4928       0.0071       1.5383
      1.9019       0.0058       1.4934       0.0072       1.5390
      1.9119       0.0059       1.4940       0.0072       1.5397
      1.9219       0.0059       1.4946       0.0073       1.5404
      1.9319       0.0060       1.4952       0.0073       1.5412
      1.9419       0.0060       1.4958       0.0074       1.5419
      1.9520       0.0061       1.4964       0.0074       1.5426
      1.9620       0.0061       1.4970       0.0075       1.5434
      1.9720       0.0061       1.4976       0.0076       1.5441
      1.9820       0.0062       1.4982       0.0076       1.5449
      1.9920       0.0062       1.4988       0.0077       1.5457
      2.0020       0.0063       1.4995       0.0077       1.5464
      2.0120       0.0063       1.5001       0.0078       1.5472
      2.0220       0.0064       1.5007       0.0079       1.5480
      2.0320       0.0064       1.5014       0.0079       1.5488
      2.0420       0.0065       1.5020       0.0080       1.5496
      2.0521       0.0065       1.5027       0.0081       1.5504
      2.0621       0.0066       1.5033       0.0081       1.5512
      2.0721       0.0066       1.5040       0.0082       1.5520
      2.0821       0.0067       1.5046       0.0083       1.5528
      2.0921       0.0067       1.5053       0.0083       1.5537
      2.1021       0.0068       1.5060       0.0084       1.5545
      2.1121       0.0068       1.5067       0.0085       1.5553
      2.1221       0.0069       1.5074       0.0085       1.5562
      2.1321       0.0069       1.5080       0.0086       1.5570
      2.1421       0.0070       1.5087       0.0087       1.5579
      2.1522       0.0071       1.5094       0.0087       1.5588
      2.1622       0.0071       1.5102       0.0088       1.5596
      2.1722       0.0072       1.5109       0.0089       1.5605
      2.1822       0.0072       1.5116       0.0089       1.5614
      2.1922       0.0073       1.5123       0.0090       1.5623
      2.2022       0.0073       1.5130       0.0091       1.5632
      2.2122       0.0074       1.5138       0.0091       1.5641
      2.2222       0.0074       1.5145       0.0092       1.5650
      2.2322       0.0075       1.5153       0.0093       1.5660
      2.2422       0.0076       1.5160       0.0094       1.5669
      2.2523       0.0076       1.5168       0.0094       1.5678
      2.2623       0.0077       1.5175       0.0095       1.5688
      2.2723       0.0077       1.5183       0.0096       1.5697
      2.2823       0.0078       1.5191       0.0097       1.5707
      2.2923       0.0078       1.5199       0.0097       1.5717
      2.3023       0.0079       1.5206       0.0098       1.5726
      2.3123       0.0080       1.5214       0.0099       1.5736
      2.3223       0.0080       1.5222       0.0100       1.5746
      2.3323       0.0081       1.5230       0.0100       1.5756
      2.3423       0.0081       1.5238       0.0101       1.5766
      2.3524       0.0082       1.5247       0.0102       1.5776
      2.3624       0.0083       1.5255       0.0103       1.5787
      2.3724       0.0083       1.5263       0.0104       1.5797
      2.3824       0.0084       1.5272       0.0105       1.5807
      2.3924       0.0085       1.5280       0.0105       1.5818
      2.4024       0.0085       1.5288       0.0106       1.5828
      2.4124       0.0086       1.5297       0.0107       1.5839
      2.4224       0.0087       1.5306       0.0108       1.5850
      2.4324       0.0087       1.5314       0.0109       1.5860
      2.4424       0.0088       1.5323       0.0110       1.5871
      2.4525       0.0089       1.5332       0.0110       1.5882
      2.4625       0.0089       1.5341       0.0111       1.5893
      2.4725       0.0090       1.5350       0.0112       1.5905
      2.4825       0.0091       1.5359       0.0113       1.5916
      2.4925       0.0091       1.5368       0.0114       1.5927
      2.5025       0.0092       1.5377       0.0115       1.5939
      2.5125       0.0093       1.5386       0.0116       1.5950
      2.5225       0.0093       1.5395       0.0117       1.5962
      2.5325       0.0094       1.5405       0.0118       1.5974
      2.5425       0.0095       1.5414       0.0119       1.5985
      2.5526       0.0096       1.5424       0.0120       1.5997
      2.5626       0.0096       1.5433       0.0121       1.6009
      2.5726       0.0097       1.5443       0.0122       1.6021
      2.5826       0.0098       1.5453       0.0123       1.6034
      2.5926       0.0099       1.5462       0.0124       1.6046
      2.6026       0.0099       1.5472       0.0125       1.6058
     2.61261      0.01001      1.54823      0.01256      1.60707
     2.62262      0.01009      1.54924      0.01266      1.60833
     2.63263      0.01016      1.55025      0.01277      1.60960
     2.64264      0.01024      1.55127      0.01287      1.61088
     2.65265      0.01032      1.55229      0.01298      1.61217
     2.66266      0.01040      1.55333      0.01308      1.61347
     2.67267      0.01048      1.55437      0.01319      1.61478
     2.68268      0.01057      1.55542      0.01330      1.61610
     2.69269      0.01065      1.55648      0.01341      1.61743
     2.70270      0.01073      1.55755      0.01352      1.61878
     2.71271      0.01082      1.55862      0.01363      1.62013
     2.72272      0.01090      1.55971      0.01374      1.62150
     2.73273      0.01099      1.56080      0.01385      1.62288
     2.74274      0.01107      1.56190      0.01397      1.62427
     2.75275      0.01116      1.56301      0.01409      1.62567
     2.76276      0.01125      1.56413      0.01420      1.62708
     2.77277      0.01134      1.56526      0.01432      1.62850
     2.78278      0.01143      1.56640      0.01444      1.62994
     2.79279      0.01152      1.56754      0.01456      1.63138
     2.80280      0.01161      1.56870      0.01468      1.63284
     2.81281      0.01170      1.56986      0.01481      1.63432
     2.82282      0.01179      1.57103      0.01493      1.63580
     2.83283      0.01189      1.57221      0.01506      1.63730
     2.84284      0.01198      1.57341      0.01518      1.63880
     2.85285      0.01208      1.57461      0.01531      1.64033
     2.86286      0.01218      1.57582      0.01544      1.64186
     2.87287      0.01228      1.57704      0.01557      1.64341
     2.88288      0.01237      1.57827      0.01571      1.64497
     2.89289      0.01247      1.57951      0.01584      1.64654
     2.90290      0.01257      1.58076      0.01598      1.64813
     2.91291      0.01268      1.58202      0.01611      1.64973
     2.92292      0.01278      1.58329      0.01625      1.65135
     2.93293      0.01288      1.58457      0.01639      1.65298
     2.94294      0.01299      1.58586      0.01653      1.65462
     2.95295      0.01310      1.58717      0.01668      1.65628
     2.96296      0.01320      1.58848      0.01682      1.65795
     2.97297      0.01331      1.58980      0.01697      1.65963
     2.98298      0.01342      1.59114      0.01712      1.66133
     2.99299      0.01353      1.59248      0.01727      1.66305
     3.00300      0.01364      1.59384      0.01742      1.66478
     3.01301      0.01376      1.59520      0.01757      1.66653
     3.02302      0.01387      1.59658      0.01773      1.66829
     3.03303      0.01399      1.59797      0.01788      1.67006
     3.04304      0.01410      1.59937      0.01804      1.67185
     3.05305      0.01422      1.60079      0.01820      1.67366
     3.06306      0.01434      1.60221      0.01836      1.67549
     3.07307      0.01446      1.60365      0.01853      1.67733
     3.08308      0.01458      1.60510      0.01869      1.67918
     3.09309      0.01470      1.60656      0.01886      1.68106
     3.10310      0.01483      1.60803      0.01903      1.68295
     3.11311      0.01496      1.60952      0.01920      1.68485
     3.12312      0.01508      1.61102      0.01938      1.68678
     3.13313      0.01521      1.61253      0.01955      1.68872
     3.14314      0.01534      1.61405      0.01973      1.69068
     3.15315      0.01547      1.61559      0.01991      1.69265
     3.16316      0.01561      1.61714      0.02010      1.69465
     3.17317      0.01574      1.61871      0.02028      1.69666
     3.18318      0.01588      1.62028      0.02047      1.69869
     3.19319      0.01601      1.62187      0.02066      1.70074
     3.20320      0.01615      1.62348      0.02085      1.70281
     3.21321      0.01629      1.62510      0.02104      1.70490
     3.22322      0.01644      1.62673      0.02124      1.70701
     3.23323      0.01658      1.62838      0.02144      1.70914
     3.24324      0.01673      1.63004      0.02164      1.71129
     3.25325      0.01687      1.63171      0.02185      1.71345
     3.26326      0.01702      1.63340      0.02205      1.71564
     3.27327      0.01718      1.63511      0.02226      1.71785
     3.28328      0.01733      1.63683      0.02247      1.72008
     3.29329      0.01748      1.63857      0.02269      1.72233
     3.30330      0.01764      1.64032      0.02291      1.72461
     3.31331      0.01780      1.64209      0.02313      1.72690
     3.32332      0.01796      1.64387      0.02335      1.72922
     3.33333      0.01812      1.64567      0.02358      1.73156
     3.34334      0.01829      1.64748      0.02381      1.73392
     3.35335      0.01845      1.64932      0.02404      1.73630
     3.36336      0.01862      1.65116      0.02428      1.73871
     3.37337      0.01879      1.65303      0.02452      1.74114
     3.38338      0.01897      1.65491      0.02476      1.74360
     3.39339      0.01914      1.65681      0.02500      1.74607
     3.40340      0.01932      1.65873      0.02525      1.74858
     3.41341      0.01950      1.66066      0.02551      1.75111
     3.42342      0.01968      1.66262      0.02576      1.75366
     3.43343      0.01986      1.66459      0.02602      1.75624
     3.44344      0.02005      1.66658      0.02628      1.75885
     3.45345      0.02024      1.66859      0.02655      1.76148
     3.46346      0.02043      1.67061      0.02682      1.76414
     3.47347      0.02062      1.67266      0.02710      1.76682
     3.48348      0.02082      1.67473      0.02738      1.76954
     3.49349      0.02102      1.67681      0.02766      1.77228
     3.50350      0.02122      1.67892      0.02794      1.77505
     3.51351      0.02143      1.68104      0.02824      1.77784
     3.52352      0.02163      1.68319      0.02853      1.78067
     3.53353      0.02185      1.68535      0.02883      1.78353
     3.54354      0.02206      1.68754      0.02913      1.78641
     3.55355      0.02227      1.68975      0.02944      1.78933
     3.56356      0.02249      1.69198      0.02976      1.79228
     3.57357      0.02272      1.69423      0.03007      1.79525
     3.58358      0.02294      1.69651      0.03040      1.79826
     3.59359      0.02317      1.69881      0.03072      1.80131
     3.60360      0.02340      1.70113      0.03106      1.80438
     3.61361      0.02364      1.70347      0.03139      1.80749
     3.62362      0.02387      1.70583      0.03174      1.81063
     3.63363      0.02412      1.70823      0.03209      1.81381
     3.64364      0.02436      1.71064      0.03244      1.81702
     3.65365      0.02461      1.71308      0.03280      1.82027
     3.66366      0.02486      1.71554      0.03316      1.82355
     3.67367      0.02512      1.71803      0.03353      1.82687
     3.68368      0.02538      1.72055      0.03391      1.83022
     3.69369      0.02564      1.72309      0.03429      1.83361
     3.70370      0.02591      1.72565      0.03468      1.83705
     3.71371      0.02618      1.72825      0.03508      1.84052
     3.72372      0.02646      1.73087      0.03548      1.84403
     3.73373      0.02674      1.73352      0.03589      1.84758
     3.74374      0.02702      1.73619      0.03631      1.85117
     3.75375      0.02731      1.73890      0.03673      1.85480
     3.76376      0.02760      1.74163      0.03716      1.85847
     3.77377      0.02790      1.74439      0.03759      1.86219
     3.78378      0.02820      1.74718      0.03804      1.86595
     3.79379      0.02851      1.75001      0.03849      1.86975
     3.80380      0.02882      1.75286      0.03895      1.87360
     3.81381      0.02914      1.75574      0.03942      1.87750
     3.82382      0.02946      1.75866      0.03989      1.88144
     3.83383      0.02979      1.76161      0.04038      1.88543
     3.84384      0.03012      1.76459      0.04087      1.88947
     3.85385      0.03046      1.76760      0.04137      1.89355
     3.86386      0.03081      1.77065      0.04188      1.89769
     3.87387      0.03115      1.77373      0.04240      1.90188
     3.88388      0.03151      1.77685      0.04293      1.90611
     3.89389      0.03187      1.78000      0.04347      1.91041
     3.90390      0.03224      1.78319      0.04402      1.91475
     3.91391      0.03261      1.78641      0.04458      1.91915
     3.92392      0.03299      1.78968      0.04515      1.92361
     3.93393      0.03338      1.79297      0.04573      1.92812
     3.94394      0.03377      1.79631      0.04632      1.93269
     3.95395      0.03417      1.79969      0.04693      1.93732
     3.96396      0.03458      1.80311      0.04754      1.94201
     3.97397      0.03499      1.80656      0.04817      1.94676
     3.98398      0.03541      1.81006      0.04880      1.95157
     3.99399      0.03584      1.81360      0.04945      1.95644
     4.00400      0.03628      1.81719      0.05012      1.96138
     4.01401      0.03673      1.82082      0.05080      1.96639
     4.02402      0.03718      1.82449      0.05149      1.97146
     4.03403      0.03764      1.82820      0.05219      1.97660
     4.04404      0.03811      1.83196      0.05291      1.98182
     4.05405      0.03859      1.83577      0.05364      1.98710
     4.06406      0.03908      1.83963      0.05439      1.99245
     4.07407      0.03957      1.84354      0.05516      1.99788
     4.08408      0.04008      1.84749      0.05594      2.00339
     4.09409      0.04060      1.85149      0.05673      2.00897
     4.10410      0.04112      1.85555      0.05755      2.01463
     4.11411      0.04166      1.85966      0.05838      2.02038
     4.12412      0.04220      1.86382      0.05922      2.02620
     4.13413      0.04276      1.86804      0.06009      2.03211
     4.14414      0.04333      1.87231      0.06098      2.03810
     4.15415      0.04391      1.87663      0.06188      2.04419
     4.16416      0.04450      1.88102      0.06281      2.05036
     4.17417      0.04511      1.88546      0.06376      2.05662
     4.18418      0.04572      1.88997      0.06472      2.06298
     4.19419      0.04635      1.89453      0.06572      2.06943
     4.20420      0.04700      1.89916      0.06673      2.07598
     4.21421      0.04765      1.90385      0.06776      2.08263
     4.22422      0.04832      1.90861      0.06883      2.08939
     4.23423      0.04901      1.91343      0.06991      2.09625
     4.24424      0.04970      1.91832      0.07102      2.10321
     4.25425      0.05042      1.92328      0.07216      2.11029
     4.26426      0.05115      1.92831      0.07333      2.11747
     4.27427      0.05189      1.93341      0.07452      2.12478
     4.28428      0.05266      1.93859      0.07574      2.13220
     4.29429      0.05344      1.94384      0.07700      2.13974
     4.30430      0.05423      1.94917      0.07828      2.14740
     4.31431      0.05505      1.95457      0.07960      2.15519
     4.32432      0.05588      1.96006      0.08095      2.16311
     4.33433      0.05674      1.96563      0.08234      2.17117
     4.34434      0.05761      1.97128      0.08376      2.17936
     4.35435      0.05850      1.97703      0.08522      2.18769
     4.36436      0.05942      1.98285      0.08672      2.19616
     4.37437      0.06036      1.98877      0.08826      2.20478
     4.38438      0.06132      1.99479      0.08984      2.21355
     4.39439      0.06230      2.00089      0.09146      2.22248
     4.40440      0.06331      2.00710      0.09313      2.23156
     4.41441      0.06434      2.01340      0.09484      2.24081
     4.42442      0.06540      2.01980      0.09660      2.25022
     4.43443      0.06649      2.02631      0.09841      2.25981
     4.44444      0.06760      2.03293      0.10027      2.26958
     4.45445      0.06875      2.03965      0.10219      2.27953
     4.46446      0.06992      2.04649      0.10416      2.28966
     4.47447      0.07112      2.05344      0.10620      2.29999
     4.48448      0.07236      2.06051      0.10829      2.31051
     4.49449      0.07363      2.06770      0.11044      2.32124
     4.50450      0.07493      2.07502      0.11266      2.33218
     4.51451      0.07628      2.08246      0.11495      2.34334
     4.52452      0.07765      2.09004      0.11731      2.35472
     4.53453      0.07907      2.09775      0.11975      2.36632
     4.54454      0.08053      2.10560      0.12226      2.37817
     4.55455      0.08203      2.11359      0.12485      2.39026
     4.56456      0.08357      2.12173      0.12753      2.40259
     4.57457      0.08516      2.13001      0.13030      2.41519
     4.58458      0.08679      2.13846      0.13315      2.42806
     4.59459      0.08848      2.14706      0.13611      2.44120
     4.60460      0.09021      2.15583      0.13916      2.45462
     4.61461      0.09200      2.16476      0.14233      2.46834
     4.62462      0.09385      2.17387      0.14560      2.48237
     4.63463      0.09575      2.18316      0.14899      2.49671
     4.64464      0.09772      2.19263      0.15250      2.51137
     4.65465      0.09974      2.20229      0.15613      2.52637
    4.664664     0.101837     2.212151     0.159906     2.541724
    4.674675     0.104000     2.222212     0.163818     2.557433
    4.684684     0.106236     2.232482     0.167879     2.573516
    4.694695     0.108548     2.242967     0.172095     2.589985
    4.704704     0.110939     2.253675     0.176475     2.606856
    4.714715     0.113413     2.264613     0.181029     2.624143
    4.724724     0.115975     2.275789     0.185764     2.641860
    4.734735     0.118629     2.287210     0.190691     2.660025
    4.744744     0.121379     2.298885     0.195821     2.678655
    4.754755     0.124230     2.310824     0.201166     2.697768
    4.764764     0.127188     2.323034     0.206736     2.717382
    4.774775     0.130257     2.335526     0.212547     2.737519
    4.784785     0.133445     2.348310     0.218612     2.758199
    4.794795     0.136757     2.361396     0.224946     2.779444
    4.804804     0.140200     2.374796     0.231565     2.801276
    4.814815     0.143782     2.388521     0.238488     2.823722
    4.824825     0.147510     2.402584     0.245734     2.846807
    4.834835     0.151392     2.416998     0.253323     2.870559
    4.844844     0.155438     2.431775     0.261277     2.895006
    4.854855     0.159657     2.446930     0.269620     2.920180
    4.864865     0.164060     2.462481     0.278380     2.946113
    4.874875     0.168658     2.478439     0.287584     2.972837
    4.884884     0.173463     2.494823     0.297264     3.000393
    4.894895     0.178488     2.511653     0.307453     3.028816
    4.904905     0.183748     2.528943     0.318189     3.058149
    4.914915     0.189257     2.546716     0.329510     3.088432
    4.924924     0.195033     2.564992     0.341462     3.119714
    4.934935     0.201094     2.583793     0.354093     3.152044
    4.944945     0.207459     2.603141     0.367456     3.185472
    4.954955     0.214149     2.623062     0.381608     3.220052
    4.964965     0.221189     2.643581     0.396615     3.255846
    4.974975     0.228605     2.664727     0.412547     3.292912
    4.984985     0.236424     2.686527     0.429482     3.331318
    4.994995     0.244676     2.709013     0.447506     3.371131
    5.005005     0.253398     2.732218     0.466718     3.412428
    5.015015     0.262625     2.756176     0.487223     3.455287
    5.025025     0.272399     2.780923     0.509140     3.499788
    5.035035     0.282766     2.806499     0.532602     3.546018
    5.045045     0.293777     2.832943     0.557760     3.594073
    5.055055     0.305487     2.860301     0.584781     3.644047
    5.065065     0.317960     2.888616     0.613852     3.696042
    5.075075     0.331265     2.917936     0.645183     3.750160
    5.085085     0.345481     2.948313     0.679017     3.806514
    5.095095     0.360695     2.979800     0.715623     3.865213
    5.105105     0.377005     3.012449     0.755309     3.926370
    5.115115     0.394522     3.046317     0.798422     3.990092
    5.125125     0.413371     3.081464     0.845362     4.056493
    5.135135     0.433694     3.117948     0.896583     4.125670
    5.145144     0.455648     3.155826     0.952603     4.197706
    5.155155     0.479418     3.195157     1.014018     4.272673
    5.165165     0.505209     3.235994     1.081509     4.350600
    5.175175     0.533257     3.278383     1.155857     4.431477
    5.185185     0.563829     3.322364     1.237953     4.515223
    5.195195     0.597234     3.367959     1.328826     4.601680
    5.205205     0.633818     3.415170     1.429640     4.690554
    5.215215     0.673982     3.463969     1.541715     4.781387
    5.225225     0.718172     3.514283     1.666531     4.873487
    5.235235     0.766903     3.565988     1.805744     4.965872
    5.245245     0.820743     3.618870     1.961133     5.057146
    5.255255     0.880321     3.672621     2.134574     5.145396
    5.265265     0.946315     3.726782     2.327930     5.228051
    5.275275     1.019443     3.780724     2.542917     5.301745
    5.285285     1.100413     3.833581     2.780794     5.362158
    5.295295     1.189870     3.884219     3.042017     5.403960
    5.305305     1.288292     3.931180     3.325691     5.420868
    5.315315     1.395875     3.972682     3.629011     5.405957
    5.325325     1.512321     4.006646     3.946573     5.352346
    5.335335     1.636648     4.030841     4.270066     5.254344
    5.345345     1.766998     4.043152     4.588474     5.108991
    5.355355     1.900573     4.042015     4.889301     4.917602
    5.365365     2.033778     4.026954     5.160723     4.686751
    5.375375     2.162736     3.999093     5.394470     4.427793
    5.385385     2.284143     3.961392     5.588245     4.154668
    5.395395     2.396290     3.918345     5.746624     3.880355
    5.405405     2.499829     3.875097     5.879699     3.613345
    5.415415     2.598000     3.836178     6.000004     3.355283
    5.425425     2.696139     3.804276     6.118704     3.100579
    5.435435     2.800660     3.779472     6.242133     2.837998
    5.445445     2.917906     3.759012     6.369492     2.553519
    5.455455     3.053129     3.737544     6.491982     2.234021
    5.465465     3.209727     3.707566     6.593655     1.871123
    5.475475     3.388577     3.659982     6.654077     1.464666
    5.485486     3.587453     3.584732     6.652742     1.024552
    5.495495     3.800417     3.471690     6.574273     0.570133
    5.505505     4.017381     3.311936     6.412700     0.126629
    5.515515     4.224054     3.099605     6.173213    -0.280174
    5.525526     4.402910     2.834000     5.870618    -0.629334
    5.535535     4.535388     2.521451     5.525430    -0.908071
    5.545545     4.605325     2.175906     5.159271    -1.112438
    5.555555     4.602627     1.817622     4.791395    -1.245693
    5.565566     4.525903     1.469688     4.436723    -1.315796
    5.575575     4.382777     1.153613     4.105478    -1.332900
    5.585585     4.187762     0.885485     3.803693    -1.307476
    5.595595     3.958731     0.674163     3.534264    -1.249174
    5.605606     3.713382     0.521460     3.297884    -1.166296
    5.615615     3.466785     0.423840     3.093906    -1.065673
    5.625625     3.230251     0.374551     2.920949    -0.952762
    5.635635     3.011383     0.365554     2.777375    -0.831884
    5.645645     2.814650     0.388825     2.661548    -0.706463
    5.655655     2.642173     0.437126     2.571991    -0.579257
    5.665665     2.494553     0.504310     2.507505    -0.452621
    5.675675     2.371465     0.585356     2.467180    -0.328696
    5.685685     2.272122     0.676256     2.450380    -0.209624
     5.69570      2.19558      0.77384      2.45668     -0.09771
    5.706        2.141       0.8755        2.486       0.4362E-2
     5.71572      2.10759      0.97927      2.53723      0.09337
    5.725725     2.094978     1.083157     2.610305     0.165440
    5.735735     2.102942     1.185420     2.703492     0.215953
    5.745746     2.131547     1.284190     2.814055     0.239649
    5.755755     2.181064     1.377339     2.937454     0.230952
    5.765765     2.251874     1.462305     3.066801     0.184664
     5.77578      2.34433      1.53593      3.19261      0.09705
     5.78579      2.45851      1.59426      3.30306     -0.03269
    5.795795     2.593837     1.632472     3.385194    -0.201079
    5.805805     2.748634     1.644829     3.426965    -0.399468
    5.815815     2.919498     1.624876     3.419823    -0.614596
    5.825826     3.100592     1.565961     3.360806    -0.830469
    5.835836     3.283100     1.462208     3.253286    -1.031328
    5.845845     3.455054     1.309989     3.105994    -1.204488
    5.855855     3.602008     1.109660     2.930720    -1.342110
    5.865866     3.708744     0.867152     2.739833    -1.441400
    5.875876     3.762033     0.594514     2.544269    -1.503707
    5.885885     3.753654     0.308835     2.352512    -1.533061
     5.89590      3.68252      0.02941      2.17036     -1.53477
    5.905906     3.554935    -0.225805     2.001286    -1.514357
    5.915915     3.382866    -0.443344     1.846952    -1.476934
    5.925926     3.180991    -0.615790     1.707736    -1.426883
    5.935935     2.963838    -0.741514     1.583236    -1.367782
    5.945946     2.743729    -0.823336     1.472588    -1.302453
    5.955956     2.529886    -0.866725     1.374713    -1.233059
    5.965966     2.328391    -0.878244     1.288460    -1.161213
    5.975976     2.142722    -0.864429     1.212721    -1.088107
    5.985986     1.974392    -0.831168     1.146464    -1.014599
    5.995996     1.823588    -0.783437     1.088773    -0.941293
    6.006006     1.689660    -0.725246     1.038842    -0.868601
    6.016016     1.571528    -0.659735     0.995992    -0.796797
    6.026026     1.467911    -0.589296     0.959660    -0.726057
    6.036036     1.377495    -0.515715     0.929390    -0.656487
    6.046046     1.299013    -0.440298     0.904831    -0.588139
    6.056056     1.231322    -0.363987     0.885731    -0.521049
    6.066066     1.173410    -0.287443     0.871931    -0.455242
    6.076076     1.124412    -0.211124     0.863364    -0.390752
    6.086086     1.083598    -0.135326     0.860045    -0.327632
     6.09610      1.05038     -0.06024      0.86208     -0.26599
     6.10611      1.02431      0.01401      0.86966     -0.20598
     6.11612      1.00506      0.08735      0.88305     -0.14788
     6.12613      0.99241      0.15974      0.90258     -0.09205
     6.13614      0.98628      0.23115      0.92865     -0.03905
     6.14615      0.98667      0.30149      0.96169      0.01036
     6.15616      0.99372      0.37068      1.00209      0.05517
     6.16617      1.00768      0.43854      1.05016      0.09401
    6.176176     1.028894     0.504826     1.105994     0.125174
    6.186186     1.057817     0.569137     1.169302     0.146528
    6.196196     1.095006     0.630915     1.239187     0.155591
    6.206206     1.141094     0.689359     1.313872     0.149662
    6.216216     1.196750     0.743372     1.390432     0.126135
     6.22623      1.26262      0.79147      1.46464      0.08301
     6.23624      1.33923      0.83172      1.53105      0.01957
     6.24625      1.42679      0.86163      1.58350     -0.06289
    6.256256     1.525007     0.878138     1.616067    -0.160603
    6.266266     1.632708     0.877629     1.624279    -0.267430
    6.276276     1.747501     0.856148     1.606263    -0.375703
    6.286286     1.865344     0.809806     1.563235    -0.477594
    6.296296     1.980293     0.735497     1.499153    -0.566573
    6.306306     2.084578     0.631881     1.419702    -0.638374
    6.316316     2.169261     0.500432     1.331017    -0.691253
    6.326326     2.225534     0.346213     1.238678    -0.725589
    6.336336     2.246529     0.177831     1.147107    -0.743201
      6.3463       2.2290       0.0063       1.0594      -0.7466
    6.356356     2.174222    -0.156704     0.977481    -0.738659
    6.366366     2.087579    -0.301454     0.902299    -0.721813
    6.376376     1.977210    -0.421237     0.834161    -0.698341
    6.386386     1.852139    -0.513076     0.772937    -0.670083
    6.396396     1.720693    -0.577227     0.718237    -0.638495
    6.406406     1.589584    -0.616173     0.669550    -0.604704
    6.416416     1.463595    -0.633587     0.626319    -0.569560
    6.426426     1.345710    -0.633487     0.587985    -0.533690
    6.436436     1.237501    -0.619698     0.554029    -0.497552
    6.446446     1.139511    -0.595562     0.523974    -0.461470
    6.456456     1.051617    -0.563851     0.497400    -0.425670
    6.466466     0.973287    -0.526769     0.473933    -0.390301
    6.476476     0.903796    -0.486027     0.453256    -0.355458
    6.486486     0.842334    -0.442919     0.435094    -0.321196
    6.496496     0.788095    -0.398405     0.419217    -0.287541
    6.506506     0.740309    -0.353184     0.405432    -0.254491
    6.516516     0.698283    -0.307756     0.393582    -0.222038
    6.526526     0.661393    -0.262473     0.383542    -0.190157
    6.536536     0.629097    -0.217571     0.375213    -0.158822
    6.546546     0.600923    -0.173196     0.368527    -0.127996
     6.55656      0.57647     -0.12944      0.36344     -0.09765
     6.56657      0.55541     -0.08634      0.35993     -0.06775
     6.57658      0.53746     -0.04392      0.35801     -0.03827
    6.587       0.5224       -.2149E-2    0.3577       -.9190E-2
     6.59660      0.51002      0.03899      0.35907      0.01950
     6.60661      0.50022      0.07955      0.36219      0.04779
     6.61662      0.49290      0.11957      0.36717      0.07566
    6.626626     0.488001     0.159092     0.374165     0.103054
    6.636636     0.485507     0.198168     0.383328     0.129883
    6.646646     0.485442     0.236836     0.394864     0.156011
    6.656656     0.487868     0.275121     0.408996     0.181234
    6.666667     0.492887     0.313039     0.425971     0.205271
    6.676676     0.500643     0.350579     0.446042     0.227732
    6.686686     0.511323     0.387700     0.469444     0.248092
    6.696696     0.525164     0.424324     0.496363     0.265668
    6.706707     0.542449     0.460312     0.526871     0.279589
    6.716716     0.563513     0.495454     0.560844     0.288785
    6.726726     0.588734     0.529443     0.597850     0.292010
    6.736736     0.618533     0.561845     0.637019     0.287914
    6.746747     0.653351     0.592060     0.676905     0.275198
    6.756756     0.693619     0.619277     0.715412     0.252869
    6.766766     0.739704     0.642430     0.749842     0.220585
    6.776776     0.791828     0.660149     0.777148     0.178999
    6.786787     0.849938     0.670728     0.794408     0.130001
     6.79680      0.91353      0.67213      0.79944      0.07665
     6.80681      0.98145      0.66210      0.79135      0.02275
     6.81682      1.05161      0.63830      0.77079     -0.02781
     6.82683      1.12089      0.59878      0.73975     -0.07185
    6.836837     1.185047     0.542423     0.701063    -0.107260
    6.846847     1.239001     0.469617     0.657785    -0.133214
    6.856857     1.277558     0.382735     0.612672    -0.149927
    6.866867     1.296351     0.286295     0.567913    -0.158313
    6.876876     1.292909     0.186434     0.525035    -0.159652
     6.88689      1.26730      0.08988      0.48497     -0.15530
    6.897        1.222       0.2728E-2    0.4482       -.1465   
     6.90691      1.16180     -0.07066      0.41488     -0.13449
    6.916917     1.091540    -0.128024     0.384914    -0.120041
    6.926927     1.016353    -0.169090     0.358133    -0.103928
     6.93694      0.94040     -0.19504      0.33428     -0.08671
     6.94695      0.86674     -0.20789      0.31306     -0.06880
     6.95696      0.79737     -0.20996      0.29423     -0.05052
     6.96697      0.73336     -0.20353      0.27750     -0.03210
     6.97698      0.67519     -0.19061      0.26265     -0.01370
    6.987       0.6228       -.1729       0.2495       0.4576E-2
     6.99700      0.57607     -0.15179      0.23776      0.02264
     7.00701      0.53447     -0.12831      0.22737      0.04044
     7.01702      0.49758     -0.10329      0.21816      0.05796
     7.02703      0.46491     -0.07733      0.21001      0.07518
     7.03704      0.43603     -0.05088      0.20282      0.09209
     7.04705      0.41050     -0.02425      0.19650      0.10870
    7.057       0.3880       0.2318E-2    0.1910       0.1250   
     7.06707      0.36806      0.02868      0.18621      0.14108
     7.07708      0.35052      0.05473      0.18214      0.15687
     7.08709      0.33509      0.08041      0.17873      0.17242
    7.097096     0.321556     0.105683     0.175956     0.187753
    7.107107     0.309729     0.130537     0.173800     0.202886
    7.117116     0.299462     0.154972     0.172256     0.217837
    7.127127     0.290624     0.179007     0.171323     0.232625
    7.137137     0.283113     0.202660     0.171013     0.247265
    7.147147     0.276845     0.225961     0.171344     0.261770
    7.157157     0.271755     0.248941     0.172346     0.276151
    7.167167     0.267797     0.271631     0.174057     0.290413
    7.177176     0.264942     0.294065     0.176529     0.304552
    7.187187     0.263175     0.316277     0.179825     0.318561
    7.197196     0.262499     0.338298     0.184021     0.332414
    7.207206     0.262933     0.360156     0.189206     0.346073
    7.217217     0.264512     0.381880     0.195486     0.359481
    7.227227     0.267289     0.403484     0.202977     0.372546
    7.237237     0.271337     0.424983     0.211812     0.385145
    7.247247     0.276746     0.446375     0.222127     0.397105
    7.257257     0.283631     0.467648     0.234060     0.408192
    7.267267     0.292132     0.488770     0.247733     0.418097
    7.277277     0.302412     0.509678     0.263226     0.426419
    7.287287     0.314663     0.530280     0.280549     0.432659
    7.297297     0.329107     0.550437     0.299585     0.436212
    7.307307     0.345985     0.569943     0.320027     0.436395
    7.317317     0.365569     0.588519     0.341311     0.432492
    7.327327     0.388130     0.605777     0.362546     0.423865
    7.337337     0.413934     0.621202     0.382504     0.410102
    7.347347     0.443203     0.634118     0.399675     0.391205
    7.357357     0.476049     0.643661     0.412450     0.367766
    7.367367     0.512411     0.648765     0.419410     0.341030
    7.377377     0.551939     0.648171     0.419652     0.312790
    7.387387     0.593847     0.640493     0.413022     0.285109
    7.397398     0.636798     0.624349     0.400162     0.259918
    7.407407     0.678780     0.598610     0.382335     0.238691
    7.417417     0.717140     0.562734     0.361110     0.222258
    7.427427     0.748785     0.517128     0.338057     0.210821
    7.437437     0.770613     0.463453     0.314519     0.204099
    7.447447     0.780153     0.404615     0.291508     0.201512
    7.457457     0.776154     0.344421     0.269696     0.202360
    7.467467     0.758932     0.286926     0.249475     0.205933
    7.477477     0.730276     0.235644     0.231017     0.211594
    7.487487     0.692976     0.193003     0.214347     0.218800
    7.497497     0.650195     0.160151     0.199401     0.227111
    7.507507     0.604883     0.137072     0.186061     0.236181
    7.517517     0.559451     0.122947     0.174188     0.245747
    7.527527     0.515625     0.116506     0.163636     0.255610
    7.537538     0.474499     0.116341     0.154262     0.265625
    7.547547     0.436667     0.121100     0.145935     0.275685
    7.557557     0.402341     0.129592     0.138536     0.285714
    7.567567     0.371491     0.140829     0.131959     0.295662
    7.577577     0.343947     0.154018     0.126111     0.305492
    7.587587     0.319453     0.168545     0.120911     0.315184
    7.597597     0.297731     0.183941     0.116290     0.324725
    7.607607     0.278492     0.199858     0.112189     0.334108
    7.617618     0.261464     0.216043     0.108556     0.343335
    7.627627     0.246401     0.232309     0.105350     0.352407
    7.637637     0.233078     0.248528     0.102533     0.361331
    7.647647     0.221296     0.264612     0.100076     0.370115
     7.65766      0.21089      0.28050      0.09795      0.37877
     7.66767      0.20170      0.29616      0.09615      0.38730
     7.67768      0.19360      0.31157      0.09464      0.39572
     7.68769      0.18649      0.32673      0.09343      0.40403
     7.69770      0.18027      0.34163      0.09250      0.41226
     7.70771      0.17487      0.35629      0.09185      0.42041
     7.71772      0.17021      0.37072      0.09149      0.42848
     7.72773      0.16625      0.38493      0.09141      0.43650
     7.73774      0.16295      0.39895      0.09163      0.44446
     7.74775      0.16027      0.41279      0.09217      0.45237
     7.75776      0.15819      0.42647      0.09303      0.46024
     7.76777      0.15669      0.44002      0.09425      0.46808
     7.77778      0.15576      0.45345      0.09585      0.47587
     7.78779      0.15542      0.46679      0.09787      0.48361
    7.797797     0.155661     0.480055     0.100351     0.491298
    7.807807     0.156507     0.493262     0.103345     0.498910
    7.817817     0.157984     0.506425     0.106908     0.506414
    7.827827     0.160127     0.519558     0.111106     0.513768
    7.837838     0.162985     0.532669     0.116010     0.520909
    7.847847     0.166614     0.545758     0.121699     0.527748
    7.857858     0.171086     0.558823     0.128252     0.534169
    7.867867     0.176485     0.571845     0.135741     0.540013
    7.877877     0.182910     0.584796     0.144225     0.545076
    7.887888     0.190478     0.597628     0.153728     0.549096
    7.897897     0.199323     0.610265     0.164213     0.551756
    7.907907     0.209594     0.622603     0.175554     0.552686
    7.917918     0.221459     0.634491     0.187495     0.551487
    7.927927     0.235092     0.645720     0.199606     0.547776
    7.937938     0.250672     0.656013     0.211270     0.541261
    7.947948     0.268359     0.664996     0.221690     0.531847
    7.957957     0.288274     0.672190     0.229971     0.519733
    7.967968     0.310453     0.676991     0.235258     0.505480
    7.977978     0.334788     0.678662     0.236918     0.489996
    7.987987     0.360952     0.676359     0.234700     0.474403
    7.997998     0.388315     0.669183     0.228806     0.459834
    8.008007     0.415843     0.656298     0.219832     0.447227
    8.018017     0.442082     0.637110     0.208616     0.437184
    8.028028     0.465200     0.611495     0.196055     0.429941
    8.038037     0.483175     0.580035     0.182960     0.425431
    8.048048     0.494153     0.544123     0.169968     0.423375
    8.058058     0.496840     0.505901     0.157527     0.423398
    8.068068     0.490843     0.467916     0.145908     0.425097
    8.078078     0.476779     0.432660     0.135248     0.428097
    8.088088     0.456104     0.402124     0.125589     0.432073
    8.098097     0.430745     0.377514     0.116910     0.436756
    8.108108     0.402697     0.359228     0.109153     0.441935
    8.118117     0.373721     0.347016     0.102245     0.447446
     8.12813      0.34517      0.34021      0.09610      0.45316
     8.13814      0.31797      0.33793      0.09065      0.45900
     8.14815      0.29269      0.33930      0.08580      0.46488
     8.15816      0.26957      0.34349      0.08149      0.47076
     8.16817      0.24869      0.34978      0.07767      0.47661
     8.17818      0.22998      0.35761      0.07426      0.48240
     8.18819      0.21331      0.36651      0.07123      0.48812
     8.19820      0.19851      0.37613      0.06854      0.49375
     8.20821      0.18539      0.38622      0.06614      0.49931
     8.21822      0.17377      0.39657      0.06401      0.50477
     8.22823      0.16349      0.40703      0.06213      0.51015
     8.23824      0.15439      0.41752      0.06046      0.51545
     8.24825      0.14634      0.42795      0.05900      0.52066
     8.25826      0.13922      0.43829      0.05772      0.52581
     8.26827      0.13292      0.44849      0.05662      0.53088
     8.27828      0.12736      0.45854      0.05568      0.53589
     8.28829      0.12245      0.46843      0.05490      0.54084
     8.29830      0.11814      0.47816      0.05427      0.54574
     8.30831      0.11437      0.48774      0.05379      0.55059
     8.31832      0.11108      0.49716      0.05346      0.55540
     8.32833      0.10824      0.50644      0.05327      0.56017
     8.33834      0.10583      0.51558      0.05323      0.56492
     8.34835      0.10380      0.52461      0.05334      0.56964
     8.35836      0.10215      0.53353      0.05362      0.57434
     8.36837      0.10085      0.54235      0.05407      0.57902
     8.37838      0.09990      0.55110      0.05470      0.58369
     8.38839      0.09930      0.55977      0.05552      0.58834
     8.39840      0.09903      0.56839      0.05656      0.59298
     8.40841      0.09911      0.57698      0.05784      0.59761
     8.41842      0.09954      0.58553      0.05938      0.60221
     8.42843      0.10034      0.59406      0.06121      0.60677
     8.43844      0.10153      0.60258      0.06337      0.61128
     8.44845      0.10313      0.61111      0.06589      0.61572
     8.45846      0.10517      0.61964      0.06882      0.62004
     8.46847      0.10769      0.62817      0.07220      0.62420
     8.47848      0.11073      0.63671      0.07608      0.62814
     8.48849      0.11436      0.64525      0.08050      0.63175
     8.49850      0.11864      0.65376      0.08551      0.63493
     8.50851      0.12364      0.66222      0.09112      0.63752
     8.51852      0.12945      0.67059      0.09732      0.63935
    8.528528     0.136167     0.678809     0.104042     0.640186
    8.538538     0.143901     0.686778     0.111149     0.639807
    8.548548     0.152767     0.694375     0.118407     0.637975
    8.558558     0.162887     0.701434     0.125467     0.634504
    8.568568     0.174378     0.707728     0.131873     0.629312
    8.578578     0.187333     0.712963     0.137097     0.622483
    8.588589     0.201804     0.716765     0.140620     0.614313
    8.598598     0.217759     0.718670     0.142034     0.605311
    8.608608     0.235045     0.718137     0.141148     0.596127
    8.618618     0.253323     0.714567     0.138035     0.587444
    8.628628     0.272005     0.707368     0.133015     0.579848
    8.638638     0.290224     0.696062     0.126568     0.573734
    8.648648     0.306834     0.680422     0.119230     0.569278
    8.658658     0.320502     0.660644     0.111497     0.566466
    8.668669     0.329906     0.637453     0.103766     0.565151
     8.67868      0.33400      0.61212      0.09632      0.56511
     8.68869      0.33226      0.58627      0.08935      0.56612
     8.69870      0.32486      0.56165      0.08293      0.56793
     8.70871      0.31258      0.53976      0.07711      0.57036
     8.71872      0.29663      0.52162      0.07187      0.57324
     8.72873      0.27835      0.50769      0.06718      0.57643
     8.73874      0.25903      0.49797      0.06301      0.57984
     8.74875      0.23968      0.49208      0.05930      0.58338
     8.75876      0.22102      0.48948      0.05600      0.58700
     8.76877      0.20353      0.48956      0.05308      0.59066
     8.77878      0.18745      0.49174      0.05048      0.59432
     8.78879      0.17287      0.49552      0.04817      0.59796
     8.79880      0.15977      0.50048      0.04611      0.60158
     8.80881      0.14808      0.50627      0.04428      0.60515
     8.81882      0.13769      0.51263      0.04265      0.60868
     8.82883      0.12847      0.51937      0.04121      0.61216
     8.83884      0.12031      0.52634      0.03992      0.61559
     8.84885      0.11309      0.53342      0.03878      0.61897
     8.85886      0.10670      0.54054      0.03777      0.62230
     8.86887      0.10105      0.54765      0.03688      0.62558
     8.87888      0.09604      0.55470      0.03610      0.62882
     8.88889      0.09162      0.56167      0.03543      0.63202
     8.89890      0.08771      0.56855      0.03485      0.63518
     8.90891      0.08426      0.57532      0.03436      0.63830
     8.91892      0.08121      0.58199      0.03396      0.64140
     8.92893      0.07854      0.58855      0.03364      0.64446
     8.93894      0.07621      0.59501      0.03341      0.64750
     8.94895      0.07418      0.60137      0.03327      0.65052
     8.95896      0.07244      0.60764      0.03320      0.65352
     8.96897      0.07097      0.61383      0.03322      0.65651
     8.97898      0.06974      0.61995      0.03334      0.65949
     8.98899      0.06875      0.62600      0.03354      0.66246
     8.99900      0.06799      0.63199      0.03385      0.66542
     9.00901      0.06745      0.63793      0.03426      0.66837
     9.01902      0.06713      0.64384      0.03478      0.67133
     9.02903      0.06703      0.64972      0.03544      0.67427
     9.03904      0.06716      0.65557      0.03623      0.67721
     9.04905      0.06751      0.66142      0.03718      0.68015
     9.05906      0.06810      0.66725      0.03830      0.68306
     9.06907      0.06894      0.67309      0.03961      0.68596
     9.07908      0.07005      0.67894      0.04114      0.68881
     9.08909      0.07145      0.68480      0.04291      0.69161
     9.09910      0.07316      0.69067      0.04495      0.69432
     9.10911      0.07522      0.69656      0.04729      0.69690
     9.11912      0.07765      0.70246      0.04996      0.69931
     9.12913      0.08050      0.70836      0.05299      0.70149
     9.13914      0.08383      0.71425      0.05639      0.70333
     9.14915      0.08768      0.72009      0.06016      0.70474
     9.15916      0.09213      0.72587      0.06428      0.70559
     9.16917      0.09724      0.73151      0.06868      0.70574
     9.17918      0.10310      0.73696      0.07323      0.70503
     9.18919      0.10979      0.74211      0.07775      0.70333
     9.19920      0.11740      0.74682      0.08197      0.70057
     9.20921      0.12600      0.75092      0.08557      0.69674
     9.21922      0.13565      0.75418      0.08823      0.69200
     9.22923      0.14636      0.75630      0.08965      0.68660
     9.23924      0.15809      0.75695      0.08965      0.68094
     9.24925      0.17068      0.75570      0.08822      0.67543
     9.25926      0.18381      0.75214      0.08551      0.67048
     9.26927      0.19701      0.74587      0.08178      0.66638
     9.27928      0.20956      0.73661      0.07737      0.66329
     9.28929      0.22060      0.72431      0.07260      0.66125
     9.29930      0.22917      0.70925      0.06774      0.66019
     9.30931      0.23439      0.69211      0.06301      0.65999
     9.31932      0.23565      0.67391      0.05854      0.66050
     9.32933      0.23278      0.65587      0.05440      0.66156
     9.33934      0.22609      0.63916      0.05062      0.66306
     9.34935      0.21628      0.62471      0.04721      0.66487
     9.35936      0.20427      0.61311      0.04416      0.66691
     9.36937      0.19100      0.60451      0.04144      0.66910
     9.37938      0.17730      0.59880      0.03902      0.67140
     9.38939      0.16381      0.59565      0.03688      0.67376
     9.39940      0.15098      0.59466      0.03497      0.67615
     9.40941      0.13905      0.59539      0.03327      0.67856
     9.41942      0.12816      0.59745      0.03177      0.68095
     9.42943      0.11832      0.60051      0.03043      0.68334
     9.43944      0.10951      0.60430      0.02924      0.68570
     9.44945      0.10167      0.60860      0.02818      0.68803
     9.45946      0.09470      0.61324      0.02724      0.69033
     9.46947      0.08854      0.61811      0.02640      0.69261
     9.47948      0.08308      0.62310      0.02566      0.69485
     9.48949      0.07825      0.62815      0.02500      0.69706
     9.49950      0.07397      0.63322      0.02442      0.69924
     9.50951      0.07020      0.63826      0.02391      0.70139
     9.51952      0.06685      0.64325      0.02347      0.70352
     9.52953      0.06390      0.64819      0.02308      0.70562
     9.53954      0.06129      0.65306      0.02276      0.70770
     9.54955      0.05899      0.65786      0.02249      0.70977
     9.55956      0.05696      0.66258      0.02227      0.71181
     9.56957      0.05519      0.66723      0.02210      0.71384
     9.57958      0.05364      0.67181      0.02199      0.71585
     9.58959      0.05230      0.67633      0.02192      0.71785
     9.59960      0.05116      0.68079      0.02191      0.71985
     9.60961      0.05019      0.68519      0.02195      0.72183
     9.61962      0.04940      0.68954      0.02205      0.72381
     9.62963      0.04876      0.69385      0.02220      0.72579
     9.63964      0.04829      0.69813      0.02242      0.72777
     9.64965      0.04797      0.70237      0.02270      0.72974
     9.65966      0.04779      0.70659      0.02306      0.73171
     9.66967      0.04777      0.71080      0.02350      0.73368
     9.67968      0.04791      0.71499      0.02402      0.73565
     9.68969      0.04820      0.71918      0.02465      0.73762
     9.69970      0.04866      0.72337      0.02538      0.73958
     9.70971      0.04930      0.72757      0.02624      0.74152
     9.71972      0.05011      0.73177      0.02723      0.74344
     9.72973      0.05114      0.73599      0.02838      0.74533
     9.73974      0.05237      0.74023      0.02970      0.74717
     9.74975      0.05385      0.74448      0.03122      0.74893
     9.75976      0.05560      0.74875      0.03294      0.75059
     9.76977      0.05763      0.75302      0.03490      0.75209
     9.77978      0.06000      0.75729      0.03710      0.75340
     9.78979      0.06273      0.76155      0.03954      0.75443
     9.79980      0.06588      0.76577      0.04221      0.75511
     9.80981      0.06950      0.76992      0.04508      0.75534
     9.81982      0.07364      0.77394      0.04806      0.75504
     9.82983      0.07837      0.77778      0.05104      0.75409
     9.83984      0.08375      0.78135      0.05386      0.75246
     9.84985      0.08983      0.78452      0.05630      0.75013
     9.85986      0.09667      0.78715      0.05816      0.74718
     9.86987      0.10430      0.78903      0.05924      0.74376
     9.87988      0.11270      0.78993      0.05940      0.74013
     9.88989      0.12178      0.78956      0.05861      0.73656
     9.89990      0.13137      0.78761      0.05697      0.73331
     9.90991      0.14116      0.78377      0.05462      0.73060
     9.91992      0.15070      0.77779      0.05180      0.72854
     9.92993      0.15938      0.76957      0.04871      0.72717
     9.93994      0.16652      0.75920      0.04554      0.72645
     9.94995      0.17142      0.74707      0.04243      0.72630
     9.95996      0.17355      0.73384      0.03947      0.72664
     9.96997      0.17264      0.72037      0.03673      0.72736
     9.97998      0.16878      0.70757      0.03422      0.72837
     9.98999      0.16239      0.69620      0.03196      0.72960
    10.00000      0.15410      0.68679      0.02994      0.73099
# 
# 11/06/2019 at 14:19 YAMBO @ dufour [start]
# 11/06/2019 at 14:19                [end]
#  
# Timing   [Min/Max/Average]: 01s/01s/01s
#
# .-Input file : Outputs/01_alda_01_alda.in
# | optics                         # [R OPT] Optics
# | bse                            # [R BSE] Bethe Salpeter Equation.
# | bsk                            # [R BSK] Bethe Salpeter Equation kernel
# | bss                            # [R BSS] Bethe Salpeter Equation solver
# | tddft                          # [R   K] Use TDDFT kernel
# | BoseTemp= 0.000000     eV      # Bosonic Temperature
# | X_Threads=0                    # [OPENMP/X] Number of threads for response functions
# | DIP_Threads=0                  # [OPENMP/X] Number of threads for dipoles
# | K_Threads= 1                   # [OPENMP/BSK] Number of threads for response functions
# | BSEmod= "retarded"             # [BSE] resonant/retarded/coupling
# | BSKmod= "ALDA"                 # [BSE] IP/Hartree/HF/ALDA/SEX
# | BSSmod= "d"                    # [BSS] (h)aydock/(d)iagonalization/(i)nversion/(t)ddft`
# | BSENGexx=  7667        RL      # [BSK] Exchange components
# | % KfnQP_E
# |  3.500000 | 1.000000 | 1.000000 |        # [EXTQP BSK BSS] E parameters  (c/v) eV|adim|adim
# | %
# | % BEnRange
# |   0.00000 | 10.00000 | eV      # [BSS] Energy range
# | %
# | % BDmRange
# |   0.10000 |  0.10000 | eV      # [BSS] Damping range
# | %
# | BEnSteps= 1000                 # [BSS] Energy steps
# | % BLongDir
# | 0.1000E-4 | 0.000    | 0.000    |        # [BSS] [cc] Electric Field
# | %
# | % BSEBands
# |  1 | 2 |                       # [BSK] Bands range
# | %
# | WRbsWF                         # [BSS] Write to disk excitonic the WFs
