#  __      __   ______   __       __  _______    ______     
# |  \    /  \ /      \ |  \     /  \|       \  /      \    
#  \$$\  /  $$|  $$$$$$\| $$\   /  $$| $$$$$$$\|  $$$$$$\   
#   \$$\/  $$ | $$__| $$| $$$\ /  $$$| $$__/ $$| $$  | $$   
#    \$$  $$  | $$    $$| $$$$\  $$$$| $$    $$| $$  | $$   
#     \$$$$   | $$$$$$$$| $$\$$ $$ $$| $$$$$$$\| $$  | $$   
#     | $$    | $$  | $$| $$ \$$$| $$| $$__/ $$| $$__/ $$   
#     | $$    | $$  | $$| $$  \$ | $$| $$    $$ \$$    $$   
#      \$$     \$$   \$$ \$$      \$$ \$$$$$$$   \$$$$$$    
#                                                           
# GPL Version 4.4.0 Revision 148. (Based on r.16920 h.961a8d
#                  MPI+SLK+OpenMP Build                     
#                http://www.yambo-code.org                  
#
# Absorption @ Q(1) [q->0 direction] :0.1000E-4  0.000     0.000   
#
#
# - Energies      are  Analyt. E
# - Wavefunctions are +AMGB (for 2D systems)(C)
#
# - The Green`s function is Retarded -
# - Using the Length Gauge -
# - [r,Vnl] *is* included -
#
#
#    E/ev[1]      EPS-Im[2]    EPS-Re[3]    EPSo-Im[4]   EPSo-Re[5]
#
    0.000000     0.000000     3.053030     0.000000     2.150815
   0.1001E-1    0.5943E-3     3.053       0.1045E-3     2.151   
   0.2002E-1    0.1189E-2     3.053       0.2089E-3     2.151   
   0.3003E-1    0.1783E-2     3.053       0.3134E-3     2.151   
   0.4004E-1    0.2378E-2     3.054       0.4179E-3     2.151   
   0.5005E-1    0.2974E-2     3.054       0.5224E-3     2.151   
   0.6006E-1    0.3570E-2     3.054       0.6270E-3     2.151   
   0.7007E-1    0.4166E-2     3.054       0.7315E-3     2.151   
   0.8008E-1    0.4763E-2     3.055       0.8362E-3     2.151   
   0.9009E-1    0.5361E-2     3.055       0.9408E-3     2.151   
   0.1001       0.5960E-2     3.056       0.1046E-2     2.151   
   0.1101       0.6561E-2     3.057       0.1150E-2     2.151   
   0.1201       0.7162E-2     3.057       0.1255E-2     2.152   
   0.1301       0.7764E-2     3.058       0.1360E-2     2.152   
   0.1401       0.8368E-2     3.059       0.1465E-2     2.152   
   0.1502       0.8973E-2     3.060       0.1570E-2     2.152   
   0.1602       0.9580E-2     3.061       0.1675E-2     2.152   
   0.1702       0.1019E-1     3.062       0.1781E-2     2.152   
   0.1802       0.1080E-1     3.063       0.1886E-2     2.153   
   0.1902       0.1141E-1     3.064       0.1991E-2     2.153   
   0.2002       0.1203E-1     3.065       0.2097E-2     2.153   
   0.2102       0.1264E-1     3.066       0.2203E-2     2.153   
   0.2202       0.1326E-1     3.067       0.2308E-2     2.153   
   0.2302       0.1388E-1     3.069       0.2414E-2     2.154   
   0.2402       0.1451E-1     3.070       0.2520E-2     2.154   
   0.2503       0.1513E-1     3.072       0.2627E-2     2.154   
   0.2603       0.1576E-1     3.073       0.2733E-2     2.154   
   0.2703       0.1639E-1     3.075       0.2839E-2     2.155   
   0.2803       0.1703E-1     3.076       0.2946E-2     2.155   
   0.2903       0.1767E-1     3.078       0.3053E-2     2.155   
      0.3003       0.0183       3.0800       0.0032       2.1555
      0.3103       0.0190       3.0818       0.0033       2.1559
      0.3203       0.0196       3.0838       0.0034       2.1562
      0.3303       0.0202       3.0857       0.0035       2.1565
      0.3403       0.0209       3.0878       0.0036       2.1569
      0.3504       0.0216       3.0899       0.0037       2.1572
      0.3604       0.0222       3.0921       0.0038       2.1576
      0.3704       0.0229       3.0943       0.0039       2.1580
      0.3804       0.0236       3.0966       0.0040       2.1584
      0.3904       0.0242       3.0990       0.0041       2.1588
      0.4004       0.0249       3.1015       0.0042       2.1592
      0.4104       0.0256       3.1040       0.0043       2.1597
      0.4204       0.0263       3.1066       0.0045       2.1601
      0.4304       0.0270       3.1092       0.0046       2.1605
      0.4404       0.0277       3.1119       0.0047       2.1610
      0.4505       0.0284       3.1147       0.0048       2.1615
      0.4605       0.0291       3.1176       0.0049       2.1620
      0.4705       0.0298       3.1205       0.0050       2.1625
      0.4805       0.0305       3.1235       0.0051       2.1630
      0.4905       0.0313       3.1266       0.0052       2.1635
      0.5005       0.0320       3.1297       0.0053       2.1640
      0.5105       0.0327       3.1329       0.0055       2.1646
      0.5205       0.0335       3.1362       0.0056       2.1651
      0.5305       0.0342       3.1396       0.0057       2.1657
      0.5405       0.0350       3.1431       0.0058       2.1662
      0.5506       0.0358       3.1466       0.0059       2.1668
      0.5606       0.0365       3.1502       0.0060       2.1674
      0.5706       0.0373       3.1538       0.0061       2.1680
      0.5806       0.0381       3.1576       0.0063       2.1686
      0.5906       0.0389       3.1614       0.0064       2.1693
      0.6006       0.0397       3.1653       0.0065       2.1699
      0.6106       0.0405       3.1693       0.0066       2.1706
      0.6206       0.0414       3.1734       0.0067       2.1712
      0.6306       0.0422       3.1775       0.0068       2.1719
      0.6406       0.0430       3.1818       0.0069       2.1726
      0.6507       0.0439       3.1861       0.0071       2.1733
      0.6607       0.0447       3.1905       0.0072       2.1740
      0.6707       0.0456       3.1950       0.0073       2.1747
      0.6807       0.0465       3.1996       0.0074       2.1755
      0.6907       0.0474       3.2042       0.0075       2.1762
      0.7007       0.0482       3.2090       0.0077       2.1770
      0.7107       0.0492       3.2138       0.0078       2.1777
      0.7207       0.0501       3.2187       0.0079       2.1785
      0.7307       0.0510       3.2238       0.0080       2.1793
      0.7407       0.0519       3.2289       0.0081       2.1801
      0.7508       0.0529       3.2341       0.0083       2.1809
      0.7608       0.0539       3.2394       0.0084       2.1818
      0.7708       0.0548       3.2448       0.0085       2.1826
      0.7808       0.0558       3.2503       0.0086       2.1835
      0.7908       0.0568       3.2559       0.0087       2.1843
      0.8008       0.0578       3.2616       0.0089       2.1852
      0.8108       0.0589       3.2674       0.0090       2.1861
      0.8208       0.0599       3.2733       0.0091       2.1870
      0.8308       0.0610       3.2793       0.0092       2.1879
      0.8408       0.0620       3.2854       0.0094       2.1889
      0.8509       0.0631       3.2916       0.0095       2.1898
      0.8609       0.0642       3.2979       0.0096       2.1908
      0.8709       0.0653       3.3043       0.0098       2.1917
      0.8809       0.0665       3.3109       0.0099       2.1927
     0.89089      0.06760      3.31752      0.01001      2.19371
     0.90090      0.06877      3.32428      0.01014      2.19472
     0.91091      0.06995      3.33117      0.01028      2.19574
     0.92092      0.07115      3.33817      0.01041      2.19677
     0.93093      0.07237      3.34529      0.01054      2.19782
     0.94094      0.07360      3.35253      0.01067      2.19888
     0.95095      0.07486      3.35990      0.01080      2.19995
     0.96096      0.07613      3.36739      0.01094      2.20104
     0.97097      0.07743      3.37501      0.01107      2.20214
     0.98098      0.07875      3.38275      0.01121      2.20325
     0.99099      0.08008      3.39063      0.01134      2.20438
     1.00100      0.08144      3.39864      0.01148      2.20551
     1.01101      0.08282      3.40679      0.01162      2.20667
     1.02102      0.08423      3.41507      0.01176      2.20784
     1.03103      0.08566      3.42349      0.01189      2.20902
     1.04104      0.08711      3.43206      0.01203      2.21021
     1.05105      0.08859      3.44077      0.01217      2.21142
     1.06106      0.09009      3.44962      0.01232      2.21264
     1.07107      0.09162      3.45863      0.01246      2.21388
     1.08108      0.09317      3.46778      0.01260      2.21513
     1.09109      0.09476      3.47710      0.01274      2.21640
     1.10110      0.09637      3.48656      0.01289      2.21768
     1.11111      0.09801      3.49619      0.01303      2.21897
     1.12112      0.09968      3.50599      0.01318      2.22028
     1.13113      0.10139      3.51595      0.01333      2.22161
     1.14114      0.10312      3.52607      0.01347      2.22294
     1.15115      0.10489      3.53637      0.01362      2.22430
     1.16116      0.10669      3.54685      0.01377      2.22567
     1.17117      0.10852      3.55750      0.01392      2.22705
     1.18118      0.11039      3.56834      0.01408      2.22845
     1.19119      0.11230      3.57936      0.01423      2.22986
     1.20120      0.11424      3.59057      0.01438      2.23129
     1.21121      0.11623      3.60197      0.01454      2.23273
     1.22122      0.11825      3.61357      0.01469      2.23419
     1.23123      0.12031      3.62537      0.01485      2.23567
     1.24124      0.12242      3.63737      0.01501      2.23716
     1.25125      0.12457      3.64959      0.01516      2.23867
     1.26126      0.12676      3.66201      0.01532      2.24019
     1.27127      0.12900      3.67466      0.01548      2.24173
     1.28128      0.13129      3.68752      0.01565      2.24328
     1.29129      0.13363      3.70061      0.01581      2.24485
     1.30130      0.13602      3.71394      0.01597      2.24644
     1.31131      0.13846      3.72750      0.01614      2.24804
     1.32132      0.14095      3.74130      0.01630      2.24966
     1.33133      0.14350      3.75534      0.01647      2.25130
     1.34134      0.14611      3.76964      0.01664      2.25295
     1.35135      0.14877      3.78420      0.01681      2.25462
     1.36136      0.15150      3.79902      0.01698      2.25631
     1.37137      0.15429      3.81411      0.01715      2.25801
     1.38138      0.15715      3.82947      0.01733      2.25973
     1.39139      0.16007      3.84512      0.01750      2.26147
     1.40140      0.16306      3.86105      0.01768      2.26323
     1.41141      0.16612      3.87728      0.01785      2.26500
     1.42142      0.16926      3.89382      0.01803      2.26679
     1.43143      0.17248      3.91066      0.01821      2.26860
     1.44144      0.17577      3.92782      0.01839      2.27043
     1.45145      0.17915      3.94530      0.01858      2.27228
     1.46146      0.18261      3.96311      0.01876      2.27414
     1.47147      0.18616      3.98127      0.01894      2.27602
     1.48148      0.18980      3.99977      0.01913      2.27792
     1.49149      0.19353      4.01863      0.01932      2.27984
     1.50150      0.19736      4.03786      0.01951      2.28178
     1.51151      0.20129      4.05747      0.01970      2.28374
     1.52152      0.20533      4.07746      0.01989      2.28572
     1.53153      0.20948      4.09784      0.02009      2.28771
     1.54154      0.21374      4.11864      0.02028      2.28973
     1.55155      0.21812      4.13985      0.02048      2.29176
     1.56156      0.22262      4.16149      0.02068      2.29382
     1.57157      0.22724      4.18357      0.02088      2.29589
     1.58158      0.23200      4.20610      0.02108      2.29799
     1.59159      0.23689      4.22910      0.02129      2.30010
     1.60160      0.24192      4.25258      0.02149      2.30224
     1.61161      0.24710      4.27654      0.02170      2.30439
     1.62162      0.25244      4.30102      0.02191      2.30657
     1.63163      0.25793      4.32601      0.02212      2.30877
     1.64164      0.26359      4.35154      0.02233      2.31098
     1.65165      0.26943      4.37762      0.02255      2.31322
     1.66166      0.27544      4.40427      0.02276      2.31549
     1.67167      0.28164      4.43150      0.02298      2.31777
     1.68168      0.28804      4.45934      0.02320      2.32007
     1.69169      0.29464      4.48779      0.02342      2.32240
     1.70170      0.30145      4.51689      0.02365      2.32475
     1.71171      0.30848      4.54664      0.02387      2.32712
     1.72172      0.31575      4.57708      0.02410      2.32952
     1.73173      0.32326      4.60822      0.02433      2.33193
     1.74174      0.33103      4.64009      0.02456      2.33437
     1.75175      0.33906      4.67271      0.02480      2.33684
     1.76176      0.34736      4.70610      0.02503      2.33932
     1.77177      0.35596      4.74028      0.02527      2.34183
     1.78178      0.36486      4.77530      0.02551      2.34437
     1.79179      0.37408      4.81117      0.02576      2.34693
     1.80180      0.38364      4.84793      0.02600      2.34951
     1.81181      0.39354      4.88560      0.02625      2.35212
     1.82182      0.40382      4.92422      0.02650      2.35475
     1.83183      0.41448      4.96383      0.02675      2.35741
     1.84184      0.42555      5.00444      0.02700      2.36009
     1.85185      0.43705      5.04612      0.02726      2.36280
     1.86186      0.44900      5.08889      0.02752      2.36553
     1.87187      0.46142      5.13279      0.02778      2.36829
     1.88188      0.47434      5.17787      0.02805      2.37107
     1.89189      0.48779      5.22417      0.02832      2.37389
     1.90190      0.50179      5.27174      0.02859      2.37673
     1.91191      0.51639      5.32064      0.02886      2.37959
     1.92192      0.53160      5.37090      0.02913      2.38248
     1.93193      0.54746      5.42259      0.02941      2.38541
     1.94194      0.56402      5.47577      0.02969      2.38835
     1.95195      0.58132      5.53049      0.02998      2.39133
     1.96196      0.59940      5.58682      0.03026      2.39434
     1.97197      0.61830      5.64484      0.03055      2.39737
     1.98198      0.63807      5.70460      0.03084      2.40043
     1.99199      0.65878      5.76619      0.03114      2.40352
     2.00200      0.68048      5.82969      0.03144      2.40665
     2.01201      0.70324      5.89518      0.03174      2.40980
     2.02202      0.72712      5.96274      0.03205      2.41298
     2.03203      0.75219      6.03249      0.03235      2.41619
     2.04204      0.77855      6.10451      0.03267      2.41944
     2.05205      0.80627      6.17891      0.03298      2.42271
     2.06206      0.83546      6.25581      0.03330      2.42602
     2.07207      0.86621      6.33532      0.03362      2.42935
     2.08208      0.89865      6.41757      0.03395      2.43272
     2.09209      0.93288      6.50269      0.03427      2.43613
     2.10210      0.96905      6.59084      0.03461      2.43956
     2.11211      1.00731      6.68215      0.03494      2.44303
     2.12212      1.04781      6.77680      0.03528      2.44653
     2.13213      1.09074      6.87495      0.03563      2.45007
     2.14214      1.13628      6.97678      0.03597      2.45364
     2.15215      1.18465      7.08249      0.03632      2.45724
     2.16216      1.23609      7.19230      0.03668      2.46088
     2.17217      1.29085      7.30641      0.03704      2.46456
     2.18218      1.34923      7.42506      0.03740      2.46827
     2.19219      1.41154      7.54850      0.03777      2.47202
     2.20220      1.47813      7.67700      0.03814      2.47580
     2.21221      1.54941      7.81083      0.03852      2.47963
     2.22222      1.62581      7.95030      0.03890      2.48349
     2.23223      1.70782      8.09573      0.03929      2.48738
     2.24224      1.79598      8.24744      0.03968      2.49132
     2.25225      1.89092      8.40580      0.04007      2.49530
     2.26226      1.99332      8.57117      0.04047      2.49931
     2.27227      2.10397      8.74396      0.04087      2.50337
     2.28228      2.22373      8.92457      0.04128      2.50746
     2.29229      2.35361      9.11342      0.04170      2.51160
     2.30230      2.49474      9.31096      0.04211      2.51578
     2.31231      2.64838      9.51762      0.04254      2.52000
     2.32232      2.81600      9.73384      0.04297      2.52426
     2.33233      2.99927      9.96008      0.04340      2.52856
     2.34234      3.20009     10.19673      0.04384      2.53291
     2.35235      3.42063     10.44416      0.04429      2.53730
     2.36236      3.66341     10.70266      0.04474      2.54174
     2.37237      3.93130     10.97242      0.04520      2.54622
     2.38238      4.22762     11.25346      0.04566      2.55075
     2.39239      4.55619     11.54560      0.04613      2.55532
     2.40240      4.92141     11.84831      0.04660      2.55994
     2.41241      5.32835     12.16065      0.04709      2.56461
     2.42242      5.78284     12.48103      0.04757      2.56933
     2.43243      6.29155     12.80708      0.04807      2.57409
     2.44244      6.86207     13.13529      0.04857      2.57891
     2.45245      7.50297     13.46067      0.04907      2.58377
     2.46246      8.22379     13.77619      0.04959      2.58869
     2.47247      9.03490     14.07222      0.05011      2.59366
     2.48248      9.94724     14.33564      0.05064      2.59867
     2.49249     10.97171     14.54895      0.05117      2.60374
     2.50250     12.11816     14.68912      0.05171      2.60887
     2.51251     13.39373     14.72652      0.05226      2.61405
     2.52252     14.80025     14.62403      0.05282      2.61928
     2.53253     16.33077     14.33683      0.05339      2.62457
     2.54254     17.96466     13.81371      0.05396      2.62992
     2.55255     19.66252     13.00063      0.05454      2.63532
     2.56256     21.36107     11.84804      0.05513      2.64078
     2.57257     22.97139     10.32181      0.05573      2.64630
     2.58258     24.38261      8.41724      0.05633      2.65188
     2.59259     25.47418      6.17241      0.05695      2.65752
     2.60260     26.13692      3.67442      0.05757      2.66322
     2.61261     26.29732      1.05357      0.05820      2.66899
     2.62262     25.93678     -1.53717      0.05885      2.67482
     2.63263     25.09670     -3.95035      0.05950      2.68071
     2.64264     23.86720     -6.07088      0.06016      2.68666
     2.65265     22.36478     -7.83062      0.06083      2.69268
     2.66266     20.70823     -9.20946      0.06151      2.69877
     2.67267     19.00093    -10.22514      0.06220      2.70493
     2.68268     17.32188    -10.91938      0.06290      2.71116
     2.69269     15.72469    -11.34455      0.06362      2.71745
     2.70270     14.24080    -11.55424      0.06434      2.72382
     2.71271     12.88494    -11.59746      0.06507      2.73026
     2.72272     11.66014    -11.51609      0.06582      2.73677
     2.73273     10.56217    -11.34428      0.06658      2.74336
     2.74274      9.58255    -11.10896      0.06734      2.75002
     2.75275      8.71092    -10.83091      0.06813      2.75676
     2.76276      7.93622    -10.52578      0.06892      2.76358
     2.77277      7.24772    -10.20524      0.06973      2.77047
     2.78278      6.63531     -9.87783      0.07055      2.77745
     2.79279      6.08987     -9.54972      0.07138      2.78451
     2.80280      5.60316     -9.22526      0.07222      2.79165
     2.81281      5.16799     -8.90751      0.07308      2.79888
     2.82282      4.77802     -8.59849      0.07396      2.80619
     2.83283      4.42771     -8.29950      0.07485      2.81359
     2.84284      4.11227     -8.01131      0.07575      2.82107
     2.85285      3.82754     -7.73431      0.07667      2.82865
     2.86286      3.56990     -7.46860      0.07760      2.83632
     2.87287      3.33620     -7.21407      0.07855      2.84408
     2.88288      3.12373     -6.97050      0.07952      2.85194
     2.89289      2.93010     -6.73756      0.08050      2.85989
     2.90290      2.75325     -6.51486      0.08150      2.86794
     2.91291      2.59138     -6.30199      0.08252      2.87609
     2.92292      2.44290     -6.09851      0.08355      2.88434
     2.93293      2.30643     -5.90395      0.08460      2.89270
     2.94294      2.18075     -5.71790      0.08568      2.90116
     2.95295      2.06478     -5.53991      0.08677      2.90972
     2.96296      1.95758     -5.36956      0.08788      2.91840
     2.97297      1.85831     -5.20646      0.08901      2.92718
     2.98298      1.76623     -5.05022      0.09016      2.93608
     2.99299      1.68067     -4.90046      0.09133      2.94509
     3.00300      1.60106     -4.75684      0.09253      2.95422
     3.01301      1.52686     -4.61904      0.09374      2.96347
     3.02302      1.45760     -4.48674      0.09498      2.97283
     3.03303      1.39287     -4.35965      0.09624      2.98233
     3.04304      1.33229     -4.23749      0.09753      2.99194
     3.05305      1.27551     -4.12002      0.09884      3.00169
    3.063063     1.222235    -4.006969     0.100176     3.011562
    3.073073     1.172183    -3.898126     0.101538     3.021570
    3.083083     1.125104    -3.793274     0.102926     3.031713
    3.093093     1.080773    -3.692207     0.104342     3.041993
    3.103103     1.038982    -3.594738     0.105786     3.052415
    3.113113     0.999546    -3.500687     0.107258     3.062980
    3.123123     0.962293    -3.409884     0.108760     3.073691
    3.133133     0.927068    -3.322177     0.110293     3.084551
    3.143143     0.893728    -3.237411     0.111856     3.095564
    3.153153     0.862145    -3.155452     0.113452     3.106731
    3.163163     0.832199    -3.076164     0.115081     3.118057
    3.173173     0.803781    -2.999425     0.116744     3.129544
    3.183183     0.776790    -2.925117     0.118441     3.141196
    3.193193     0.751135    -2.853131     0.120175     3.153016
    3.203203     0.726730    -2.783361     0.121945     3.165009
    3.213213     0.703497    -2.715711     0.123753     3.177176
    3.223223     0.681364    -2.650084     0.125601     3.189523
    3.233233     0.660265    -2.586398     0.127488     3.202052
    3.243243     0.640136    -2.524565     0.129418     3.214769
    3.253253     0.620922    -2.464508     0.131390     3.227676
    3.263263     0.602569    -2.406154     0.133406     3.240779
    3.273273     0.585028    -2.349430     0.135467     3.254081
    3.283283     0.568254    -2.294272     0.137575     3.267588
    3.293293     0.552203    -2.240613     0.139731     3.281302
    3.303303     0.536837    -2.188396     0.141937     3.295230
    3.313313     0.522119    -2.137562     0.144194     3.309376
    3.323323     0.508014    -2.088058     0.146505     3.323744
    3.333333     0.494492    -2.039830     0.148869     3.338341
    3.343343     0.481521    -1.992835     0.151290     3.353171
    3.353353     0.469074    -1.947021     0.153770     3.368240
    3.363363     0.457126    -1.902345     0.156309     3.383554
    3.373373     0.445651    -1.858768     0.158910     3.399118
    3.383383     0.434627    -1.816249     0.161576     3.414938
    3.393393     0.424031    -1.774751     0.164308     3.431022
    3.403403     0.413842    -1.734237     0.167108     3.447374
    3.413413     0.404040    -1.694677     0.169979     3.464002
    3.423423     0.394603    -1.656033     0.172924     3.480912
    3.433433     0.385513    -1.618278     0.175945     3.498113
    3.443443     0.376749    -1.581376     0.179044     3.515611
    3.453453     0.368294    -1.545300     0.182225     3.533412
    3.463463     0.360132    -1.510014     0.185489     3.551527
    3.473473     0.352247    -1.475487     0.188842     3.569963
    3.483484     0.344629    -1.441690     0.192285     3.588727
    3.493493     0.337268    -1.408593     0.195821     3.607828
    3.503503     0.330157    -1.376169     0.199455     3.627277
    3.513513     0.323288    -1.344396     0.203191     3.647081
    3.523524     0.316655    -1.313248     0.207031     3.667252
    3.533533     0.310252    -1.282711     0.210980     3.687798
    3.543543     0.304071    -1.252760     0.215042     3.708731
    3.553553     0.298105    -1.223380     0.219221     3.730061
    3.563564     0.292347    -1.194551     0.223523     3.751798
    3.573573     0.286791    -1.166257     0.227952     3.773956
    3.583583     0.281429    -1.138481     0.232513     3.796546
    3.593594     0.276254    -1.111206     0.237212     3.819581
    3.603603     0.271261    -1.084417     0.242054     3.843072
    3.613613     0.266444    -1.058097     0.247045     3.867036
    3.623623     0.261796    -1.032229     0.252192     3.891484
    3.633634     0.257313    -1.006802     0.257501     3.916434
    3.643643     0.252991    -0.981800     0.262978     3.941897
    3.653653     0.248824    -0.957206     0.268633     3.967893
    3.663663     0.244809    -0.933008     0.274472     3.994436
    3.673674     0.240941    -0.909192     0.280503     4.021545
    3.683683     0.237218    -0.885747     0.286735     4.049236
    3.693693     0.233636    -0.862655     0.293177     4.077530
    3.703704     0.230193    -0.839908     0.299840     4.106446
    3.713714     0.226886    -0.817491     0.306733     4.136004
    3.723723     0.223714    -0.795392     0.313867     4.166224
    3.733733     0.220674    -0.773598     0.321253     4.197132
    3.743744     0.217765    -0.752098     0.328905     4.228748
    3.753754     0.214986    -0.730880     0.336834     4.261099
    3.763763     0.212336    -0.709934     0.345055     4.294207
    3.773773     0.209816    -0.689245     0.353583     4.328102
    3.783784     0.207424    -0.668804     0.362433     4.362812
    3.793794     0.205163    -0.648599     0.371621     4.398365
    3.803803     0.203031    -0.628619     0.381166     4.434791
    3.813814     0.201032    -0.608852     0.391086     4.472124
    3.823824     0.199166    -0.589286     0.401402     4.510399
    3.833834     0.197436    -0.569910     0.412135     4.549648
    3.843843     0.195845    -0.550714     0.423308     4.589910
    3.853854     0.194397    -0.531685     0.434947     4.631226
    3.863864     0.193096    -0.512810     0.447077     4.673635
    3.873873     0.191947    -0.494081     0.459726     4.717181
    3.883883     0.190956    -0.475482     0.472926     4.761911
    3.893894     0.190129    -0.457002     0.486710     4.807873
    3.903904     0.189476    -0.438629     0.501113     4.855117
    3.913913     0.189004    -0.420351     0.516171     4.903695
    3.923924     0.188724    -0.402153     0.531928     4.953666
    3.933934     0.188649    -0.384023     0.548427     5.005090
    3.943944     0.188791    -0.365946     0.565716     5.058029
    3.953954     0.189167    -0.347910     0.583845     5.112548
    3.963964     0.189794    -0.329899     0.602874     5.168721
    3.973974     0.190693    -0.311900     0.622862     5.226620
    3.983984     0.191887    -0.293896     0.643874     5.286326
    3.993994     0.193402    -0.275874     0.665983     5.347919
    4.004004     0.195270    -0.257820     0.689269     5.411492
    4.014014     0.197524    -0.239715     0.713816     5.477137
    4.024024     0.200206    -0.221549     0.739719     5.544954
    4.034034     0.203361    -0.203306     0.767078     5.615046
    4.044044     0.207042    -0.184975     0.796008     5.687530
    4.054054     0.211311    -0.166544     0.826631     5.762524
    4.064064     0.216238    -0.148007     0.859084     5.840153
    4.074074     0.221904    -0.129361     0.893514     5.920549
    4.084084     0.228403    -0.110607     0.930089     6.003862
     4.09409      0.23585     -0.09176      0.96899      6.09024
     4.10410      0.24435     -0.07283      1.01042      6.17984
     4.11411      0.25407     -0.05388      1.05460      6.27284
     4.12412      0.26517     -0.03494      1.10179      6.36941
     4.13413      0.27782     -0.01611      1.15226      6.46976
    4.144       0.2923       0.2470E-2     1.206        6.574   
     4.15415      0.30869      0.02064      1.26433      6.68257
     4.16416      0.32739      0.03815      1.32666      6.79549
     4.17417      0.34861      0.05467      1.39377      6.91305
     4.18418      0.37262      0.06975      1.46614      7.03549
     4.19419      0.39964      0.08281      1.54434      7.16309
     4.20420      0.42983      0.09310      1.62900      7.29610
     4.21421      0.46320      0.09969      1.72083      7.43479
    4.224224     0.499514     0.101468     1.820661     7.579405
     4.23423      0.53821      0.09718      1.92942      7.73023
     4.24424      0.57821      0.08552      2.04817      7.88751
     4.25425      0.61789      0.06534      2.17813      8.05146
     4.26426      0.65497      0.03594      2.32069      8.22225
    4.274       0.6867       -.2612E-2     2.477        8.400   
     4.28428      0.71016     -0.04917      2.65029      8.58477
    4.294294     0.722853    -0.101405     2.841296     8.776411
    4.304304     0.723233    -0.156002     3.052903     8.974642
    4.314314     0.711136    -0.209240     3.287931     9.178926
    4.324324     0.687825    -0.257663     3.549580     9.388363
    4.334334     0.655650    -0.298694     3.841507     9.601568
    4.344344     0.617478    -0.330920     4.167840     9.816508
     4.35435      0.57613     -0.35406      4.53323     10.03030
     4.36436      0.53400     -0.36868      4.94277     10.23890
     4.37437      0.49288     -0.37586      5.40189     10.43672
     4.38438      0.45393     -0.37688      5.91621     10.61627
     4.39439      0.41785     -0.37303      6.49104     10.76754
     4.40440      0.38490     -0.36545      7.13079     10.87753
     4.41441      0.35513     -0.35512      7.83779     10.92973
     4.42442      0.32841     -0.34282      8.61096     10.90387
     4.43443      0.30451     -0.32917      9.44347     10.77618
     4.44444      0.28320     -0.31465     10.32038     10.52071
     4.45445      0.26419     -0.29962     11.21600     10.11210
     4.46446      0.24722     -0.28432     12.09238      9.53018
     4.47447      0.23207     -0.26897     12.89969      8.76652
     4.48448      0.21852     -0.25369     13.58071      7.83120
     4.49449      0.20636     -0.23858     14.07949      6.75771
     4.50450      0.19544     -0.22371     14.35316      5.60234
     4.51451      0.18560     -0.20912     14.38273      4.43715
     4.52452      0.17671     -0.19484     14.17870      3.33684
     4.53453      0.16865     -0.18088     13.77856      2.36485
     4.54454      0.16134     -0.16725     13.23737      1.56336
     4.55455      0.15469     -0.15396     12.61595      0.95053
     4.56456      0.14862     -0.14098     11.97074      0.52344
     4.57457      0.14307     -0.12833     11.34778      0.26446
     4.58458      0.13798     -0.11598     10.78089      0.14801
     4.59459      0.13331     -0.10392     10.29275      0.14577
     4.60460      0.12902     -0.09215      9.89720      0.23002
     4.61461      0.12506     -0.08065      9.60183      0.37508
     4.62462      0.12140     -0.06941      9.41012      0.55772
     4.63463      0.11802     -0.05841      9.32305      0.75654
     4.64464      0.11490     -0.04765      9.33985      0.95124
     4.65465      0.11200     -0.03711      9.45823      1.12152
     4.66466      0.10932     -0.02678      9.67386      1.24625
     4.67467      0.10683     -0.01665      9.97923      1.30283
    4.685       0.1045       -.6716E-2     10.36        1.267   
    4.695       0.1024       0.3044E-2     10.80        1.115   
     4.70470      0.10040      0.01263     11.27280      0.82474
     4.71471      0.09857      0.02206     11.73416      0.37988
     4.72472      0.09687      0.03134     12.13953     -0.22322
     4.73473      0.09530      0.04047     12.43769     -0.97134
     4.74474      0.09386      0.04947     12.58142     -1.83114
     4.75475      0.09253      0.05834     12.53741     -2.75124
     4.76476      0.09132      0.06709     12.29437     -3.66992
     4.77477      0.09020      0.07573     11.86559     -4.52676
     4.78478      0.08920      0.08428     11.28497     -5.27338
     4.79479      0.08829      0.09273     10.59811     -5.88022
     4.80480      0.08749      0.10110      9.85255     -6.33727
     4.81481      0.08679      0.10939      9.09007     -6.65040
     4.82482      0.08619      0.11762      8.34296     -6.83561
     4.83483      0.08570      0.12579      7.63321     -6.91371
     4.84484      0.08533      0.13390      6.97379     -6.90624
     4.85485      0.08507      0.14197      6.37065     -6.83307
     4.86486      0.08493      0.15001      5.82501     -6.71122
     4.87487      0.08492      0.15800      5.33500     -6.55459
     4.88488      0.08505      0.16598      4.89698     -6.37414
     4.89489      0.08532      0.17392      4.50651     -6.17827
     4.90490      0.08575      0.18186      4.15892     -5.97333
     4.91491      0.08635      0.18978      3.84964     -5.76398
     4.92492      0.08713      0.19770      3.57436     -5.55360
     4.93493      0.08812      0.20562      3.32921     -5.34460
     4.94494      0.08933      0.21355      3.11071     -5.13863
     4.95495      0.09079      0.22148      2.91584     -4.93683
     4.96496      0.09252      0.22941      2.74190     -4.73988
     4.97497      0.09457      0.23735      2.58659     -4.54819
     4.98498      0.09696      0.24528      2.44794     -4.36195
     4.99499      0.09974      0.25320      2.32422     -4.18120
    5.005005     0.102972     0.261094     2.213994    -4.005839
    5.015015     0.106703     0.268925     2.116015    -3.835712
    5.025025     0.111001     0.276658     2.029249    -3.670612
    5.035035     0.115939     0.284238     1.952837    -3.510303
    5.045045     0.121596     0.291589     1.886068    -3.354511
    5.055055     0.128056     0.298606     1.828385    -3.202982
    5.065065     0.135398     0.305151     1.779362    -3.055459
    5.075075     0.143694     0.311038     1.738700    -2.911707
    5.085085     0.152990     0.316035     1.706218    -2.771500
    5.095095     0.163289     0.319849     1.681857    -2.634669
    5.105105     0.174518     0.322129     1.665678    -2.501087
    5.115115     0.186493     0.322481     1.657861    -2.370704
    5.125125     0.198880     0.320500     1.658707    -2.243543
    5.135135     0.211158     0.315826     1.668645    -2.119761
    5.145144     0.222610     0.308243     1.688226    -1.999670
    5.155155     0.232373     0.297776     1.718121    -1.883775
    5.165165     0.239536     0.284794     1.759105    -1.772859
    5.175175     0.243313     0.270035     1.812022    -1.668043
    5.185185     0.243227     0.254542     1.877725    -1.570891
    5.195195     0.239235     0.239482     1.956980    -1.483495
    5.205205     0.231741     0.225937     2.050282    -1.408600
    5.215215     0.221486     0.214711     2.157621    -1.349672
    5.225225     0.209371     0.206238     2.278114    -1.310910
    5.235235     0.196279     0.200603     2.409575    -1.297106
    5.245245     0.182958     0.197623     2.547976    -1.313276
    5.255255     0.169963     0.196960     2.687016    -1.363947
    5.265265     0.157664     0.198210     2.817961    -1.452071
    5.275275     0.146266     0.200974     2.930086    -1.577695
    5.285285     0.135859     0.204889     3.011894    -1.736730
    5.295295     0.126452     0.209655     3.053169    -1.920422
    5.305305     0.118005     0.215023     3.047285    -2.116053
    5.315315     0.110450     0.220803     2.992933    -2.308984
    5.325325     0.103705     0.226846     2.894463    -2.485343
     5.33534      0.09769      0.23304      2.76070     -2.63450
     5.34535      0.09232      0.23931      2.60276     -2.75036
     5.35536      0.08752      0.24559      2.43180     -2.83131
     5.36537      0.08323      0.25183      2.25740     -2.87926
     5.37538      0.07939      0.25802      2.08682     -2.89824
     5.38539      0.07593      0.26412      1.92490     -2.89321
     5.39540      0.07283      0.27013      1.77444     -2.86918
     5.40541      0.07003      0.27604      1.63670     -2.83071
     5.41541      0.06750      0.28184      1.51187     -2.78166
     5.42543      0.06522      0.28754      1.39947     -2.72517
     5.43544      0.06315      0.29312      1.29866     -2.66370
     5.44545      0.06129      0.29860      1.20842     -2.59913
     5.45545      0.05960      0.30397      1.12771     -2.53287
     5.46547      0.05807      0.30925      1.05549     -2.46597
     5.47548      0.05669      0.31443      0.99079     -2.39918
     5.48549      0.05545      0.31951      0.93274     -2.33304
     5.49549      0.05435      0.32451      0.88057     -2.26791
     5.50551      0.05336      0.32942      0.83360     -2.20404
     5.51552      0.05250      0.33425      0.79121     -2.14159
     5.52553      0.05175      0.33899      0.75289     -2.08064
     5.53553      0.05112      0.34365      0.71819     -2.02124
     5.54555      0.05061      0.34824      0.68672     -1.96340
     5.55556      0.05021      0.35274      0.65813     -1.90708
     5.56557      0.04993      0.35716      0.63213     -1.85225
     5.57558      0.04977      0.36149      0.60847     -1.79888
     5.58559      0.04975      0.36571      0.58694     -1.74688
     5.59560      0.04985      0.36983      0.56734     -1.69620
     5.60561      0.05010      0.37381      0.54953     -1.64678
     5.61562      0.05049      0.37764      0.53336     -1.59854
     5.62563      0.05101      0.38128      0.51872     -1.55142
     5.63564      0.05165      0.38470      0.50552     -1.50535
     5.64565      0.05239      0.38786      0.49368     -1.46026
     5.65566      0.05319      0.39072      0.48313     -1.41608
     5.66567      0.05399      0.39324      0.47383     -1.37276
     5.67568      0.05469      0.39540      0.46575     -1.33024
     5.68569      0.05522      0.39723      0.45888     -1.28844
     5.69570      0.05547      0.39876      0.45320     -1.24733
     5.70571      0.05536      0.40008      0.44873     -1.20684
     5.71572      0.05485      0.40132      0.44549     -1.16693
     5.72573      0.05395      0.40260      0.44354     -1.12756
     5.73574      0.05271      0.40403      0.44292     -1.08870
     5.74575      0.05121      0.40568      0.44371     -1.05032
     5.75576      0.04955      0.40760      0.44603     -1.01242
     5.76577      0.04782      0.40978      0.44998     -0.97499
     5.77578      0.04608      0.41220      0.45571     -0.93807
     5.78579      0.04441      0.41484      0.46340     -0.90170
     5.79580      0.04282      0.41763      0.47325     -0.86599
     5.80581      0.04135      0.42055      0.48550     -0.83107
     5.81582      0.03999      0.42356      0.50039     -0.79716
     5.82583      0.03874      0.42662      0.51821     -0.76455
     5.83584      0.03760      0.42972      0.53924     -0.73365
     5.84585      0.03657      0.43283      0.56376     -0.70502
     5.85586      0.03562      0.43594      0.59198     -0.67935
     5.86587      0.03476      0.43904      0.62401     -0.65759
     5.87588      0.03397      0.44213      0.65975     -0.64085
     5.88589      0.03325      0.44519      0.69880     -0.63046
     5.89590      0.03259      0.44822      0.74028     -0.62788
     5.90591      0.03198      0.45123      0.78273     -0.63453
     5.91592      0.03142      0.45421      0.82397     -0.65154
     5.92593      0.03090      0.45716      0.86115     -0.67939
     5.93594      0.03042      0.46008      0.89102     -0.71753
     5.94595      0.02997      0.46297      0.91037     -0.76408
     5.95596      0.02955      0.46583      0.91671     -0.81588
     5.96597      0.02917      0.46866      0.90889     -0.86888
     5.97598      0.02881      0.47146      0.88739     -0.91887
     5.98599      0.02847      0.47424      0.85424     -0.96225
     5.99600      0.02816      0.47699      0.81240     -0.99661
     6.00601      0.02787      0.47971      0.76518     -1.02090
     6.01602      0.02761      0.48241      0.71563     -1.03521
     6.02603      0.02736      0.48508      0.66619     -1.04048
     6.03604      0.02713      0.48774      0.61859     -1.03805
     6.04605      0.02693      0.49037      0.57391     -1.02939
     6.05606      0.02674      0.49298      0.53273     -1.01591
     6.06607      0.02657      0.49557      0.49524     -0.99883
     6.07608      0.02642      0.49815      0.46137     -0.97915
     6.08609      0.02630      0.50070      0.43094     -0.95769
     6.09610      0.02619      0.50324      0.40367     -0.93507
     6.10611      0.02611      0.50576      0.37927     -0.91176
     6.11612      0.02606      0.50827      0.35743     -0.88812
     6.12613      0.02603      0.51076      0.33786     -0.86440
     6.13614      0.02603      0.51323      0.32030     -0.84080
     6.14615      0.02607      0.51569      0.30451     -0.81743
     6.15616      0.02614      0.51813      0.29030     -0.79440
     6.16617      0.02624      0.52055      0.27746     -0.77176
     6.17618      0.02640      0.52296      0.26585     -0.74955
     6.18619      0.02660      0.52533      0.25532     -0.72778
     6.19620      0.02686      0.52769      0.24576     -0.70646
     6.20621      0.02717      0.53000      0.23705     -0.68560
     6.21622      0.02756      0.53227      0.22911     -0.66518
     6.22623      0.02801      0.53449      0.22187     -0.64520
     6.23624      0.02855      0.53664      0.21524     -0.62563
     6.24625      0.02916      0.53869      0.20919     -0.60647
     6.25626      0.02985      0.54063      0.20365     -0.58769
     6.26627      0.03060      0.54243      0.19858     -0.56928
     6.27628      0.03141      0.54405      0.19396     -0.55121
     6.28629      0.03222      0.54547      0.18974     -0.53347
     6.29630      0.03301      0.54667      0.18590     -0.51604
     6.30631      0.03370      0.54763      0.18242     -0.49890
     6.31632      0.03423      0.54838      0.17928     -0.48203
     6.32633      0.03453      0.54895      0.17648     -0.46542
     6.33634      0.03456      0.54942      0.17399     -0.44904
     6.34635      0.03429      0.54986      0.17182     -0.43287
     6.35636      0.03375      0.55037      0.16995     -0.41691
     6.36637      0.03296      0.55102      0.16840     -0.40114
     6.37638      0.03201      0.55185      0.16717     -0.38554
     6.38639      0.03095      0.55289      0.16625     -0.37009
     6.39640      0.02985      0.55413      0.16567     -0.35479
     6.40641      0.02875      0.55555      0.16544     -0.33961
     6.41642      0.02771      0.55711      0.16558     -0.32456
     6.42643      0.02672      0.55880      0.16612     -0.30962
     6.43644      0.02581      0.56057      0.16709     -0.29478
     6.44645      0.02497      0.56241      0.16852     -0.28004
     6.45646      0.02421      0.56430      0.17046     -0.26541
     6.46647      0.02353      0.56621      0.17297     -0.25090
     6.47648      0.02290      0.56815      0.17611     -0.23651
     6.48649      0.02234      0.57009      0.17995     -0.22229
     6.49650      0.02183      0.57202      0.18458     -0.20827
     6.50651      0.02137      0.57396      0.19008     -0.19453
     6.51652      0.02095      0.57588      0.19655     -0.18115
     6.52653      0.02057      0.57780      0.20412     -0.16826
     6.53654      0.02022      0.57970      0.21287     -0.15604
     6.54655      0.01991      0.58158      0.22292     -0.14471
     6.55656      0.01961      0.58346      0.23432     -0.13457
     6.56657      0.01934      0.58531      0.24710     -0.12600
     6.57658      0.01910      0.58715      0.26117     -0.11944
     6.58659      0.01887      0.58898      0.27633     -0.11541
     6.59660      0.01866      0.59079      0.29218     -0.11445
     6.60661      0.01846      0.59259      0.30806     -0.11706
     6.61662      0.01828      0.59438      0.32307     -0.12357
     6.62663      0.01811      0.59615      0.33609     -0.13403
     6.63664      0.01796      0.59791      0.34589     -0.14804
     6.64665      0.01781      0.59966      0.35138     -0.16470
     6.65666      0.01768      0.60139      0.35181     -0.18270
     6.66667      0.01756      0.60312      0.34700     -0.20048
     6.67668      0.01745      0.60483      0.33738     -0.21654
     6.68669      0.01735      0.60653      0.32387     -0.22973
     6.69670      0.01726      0.60823      0.30764     -0.23936
     6.70671      0.01718      0.60991      0.28990     -0.24523
     6.71672      0.01711      0.61159      0.27169     -0.24753
     6.72673      0.01705      0.61326      0.25380     -0.24667
     6.73674      0.01701      0.61492      0.23677     -0.24319
     6.74675      0.01697      0.61658      0.22092     -0.23761
     6.75676      0.01695      0.61823      0.20639     -0.23044
     6.76677      0.01694      0.61987      0.19321     -0.22210
     6.77678      0.01694      0.62151      0.18134     -0.21293
     6.78679      0.01696      0.62314      0.17068     -0.20319
     6.79680      0.01700      0.62477      0.16114     -0.19310
     6.80681      0.01705      0.62640      0.15261     -0.18280
     6.81682      0.01712      0.62802      0.14497     -0.17242
     6.82683      0.01722      0.62964      0.13812     -0.16204
     6.83684      0.01734      0.63125      0.13197     -0.15172
     6.84685      0.01749      0.63286      0.12644     -0.14150
     6.85686      0.01767      0.63447      0.12145     -0.13141
     6.86687      0.01789      0.63606      0.11694     -0.12146
     6.87688      0.01815      0.63765      0.11286     -0.11168
     6.88689      0.01845      0.63922      0.10916     -0.10206
     6.89690      0.01880      0.64078      0.10578     -0.09260
     6.90691      0.01921      0.64231      0.10271     -0.08331
     6.91692      0.01969      0.64381      0.09991     -0.07418
     6.92693      0.02023      0.64527      0.09734     -0.06521
     6.93694      0.02085      0.64666      0.09500     -0.05639
     6.94695      0.02155      0.64798      0.09285     -0.04771
     6.95696      0.02232      0.64919      0.09089     -0.03918
     6.96697      0.02316      0.65027      0.08909     -0.03077
     6.97698      0.02405      0.65120      0.08744     -0.02249
     6.98699      0.02496      0.65192      0.08594     -0.01433
    6.997       0.2585E-1    0.6524       0.8458E-1    -.6279E-2
    7.007       0.2665E-1    0.6527       0.8334E-1    0.1667E-2
      7.0170       0.0273       0.6528       0.0822       0.0095
     7.02703      0.02772      0.65268      0.08122      0.01727
     7.03704      0.02787      0.65245      0.08034      0.02494
     7.04705      0.02772      0.65220      0.07957      0.03254
     7.05706      0.02729      0.65200      0.07891      0.04006
     7.06707      0.02660      0.65195      0.07836      0.04751
     7.07708      0.02573      0.65208      0.07792      0.05490
     7.08709      0.02474      0.65242      0.07761      0.06224
     7.09710      0.02369      0.65297      0.07741      0.06953
     7.10711      0.02265      0.65371      0.07734      0.07677
     7.11712      0.02164      0.65462      0.07741      0.08398
     7.12713      0.02069      0.65565      0.07762      0.09115
     7.13714      0.01981      0.65679      0.07798      0.09828
     7.14715      0.01902      0.65801      0.07852      0.10538
     7.15716      0.01829      0.65928      0.07924      0.11246
     7.16717      0.01764      0.66059      0.08016      0.11950
     7.17718      0.01706      0.66192      0.08132      0.12651
     7.18719      0.01653      0.66326      0.08272      0.13348
     7.19720      0.01606      0.66462      0.08442      0.14040
     7.20721      0.01564      0.66597      0.08643      0.14724
     7.21722      0.01526      0.66732      0.08880      0.15400
     7.22723      0.01491      0.66866      0.09158      0.16062
     7.23724      0.01460      0.67000      0.09481      0.16707
     7.24725      0.01432      0.67132      0.09853      0.17326
     7.25726      0.01407      0.67264      0.10280      0.17913
     7.26727      0.01383      0.67394      0.10766      0.18454
     7.27728      0.01362      0.67524      0.11311      0.18934
     7.28729      0.01343      0.67652      0.11915      0.19336
     7.29730      0.01325      0.67779      0.12573      0.19638
     7.30731      0.01309      0.67905      0.13269      0.19816
     7.31732      0.01294      0.68031      0.13981      0.19847
     7.32733      0.01280      0.68155      0.14674      0.19711
     7.33734      0.01268      0.68278      0.15303      0.19400
     7.34735      0.01256      0.68401      0.15814      0.18923
     7.35736      0.01246      0.68523      0.16155      0.18307
     7.36737      0.01236      0.68643      0.16285      0.17605
     7.37738      0.01227      0.68763      0.16183      0.16880
     7.38739      0.01219      0.68883      0.15857      0.16202
     7.39740      0.01212      0.69002      0.15338      0.15630
     7.40741      0.01206      0.69120      0.14674      0.15205
     7.41742      0.01201      0.69237      0.13918      0.14944
     7.42743      0.01196      0.69354      0.13122      0.14847
     7.43744      0.01192      0.69471      0.12325      0.14900
     7.44745      0.01189      0.69587      0.11556      0.15079
     7.45746      0.01187      0.69703      0.10833      0.15362
     7.46747      0.01186      0.69818      0.10167      0.15726
     7.47748      0.01186      0.69933      0.09560      0.16149
     7.48749      0.01186      0.70048      0.09011      0.16616
     7.49750      0.01188      0.70162      0.08519      0.17114
     7.50751      0.01191      0.70276      0.08077      0.17631
     7.51752      0.01196      0.70390      0.07682      0.18160
     7.52753      0.01201      0.70504      0.07329      0.18695
     7.53754      0.01208      0.70618      0.07012      0.19232
     7.54755      0.01217      0.70731      0.06728      0.19767
     7.55756      0.01228      0.70845      0.06473      0.20299
     7.56757      0.01242      0.70958      0.06244      0.20826
     7.57758      0.01257      0.71071      0.06036      0.21347
     7.58759      0.01275      0.71183      0.05849      0.21861
     7.59760      0.01297      0.71295      0.05678      0.22368
     7.60761      0.01322      0.71406      0.05524      0.22868
     7.61762      0.01351      0.71516      0.05383      0.23360
     7.62763      0.01385      0.71624      0.05255      0.23846
     7.63764      0.01423      0.71729      0.05137      0.24324
     7.64765      0.01467      0.71831      0.05030      0.24796
     7.65766      0.01517      0.71929      0.04932      0.25261
     7.66767      0.01572      0.72020      0.04842      0.25720
     7.67768      0.01634      0.72104      0.04760      0.26173
     7.68769      0.01701      0.72177      0.04684      0.26620
     7.69770      0.01771      0.72238      0.04616      0.27062
     7.70771      0.01843      0.72284      0.04553      0.27499
     7.71772      0.01913      0.72313      0.04496      0.27931
     7.72773      0.01976      0.72324      0.04445      0.28359
     7.73774      0.02027      0.72319      0.04399      0.28783
     7.74775      0.02060      0.72300      0.04358      0.29202
     7.75776      0.02072      0.72273      0.04322      0.29619
     7.76777      0.02061      0.72244      0.04290      0.30032
     7.77778      0.02027      0.72220      0.04264      0.30442
     7.78779      0.01974      0.72207      0.04243      0.30849
     7.79780      0.01907      0.72209      0.04227      0.31253
     7.80781      0.01831      0.72227      0.04216      0.31656
     7.81782      0.01750      0.72262      0.04211      0.32056
     7.82783      0.01670      0.72311      0.04212      0.32455
     7.83784      0.01593      0.72374      0.04219      0.32852
     7.84785      0.01521      0.72446      0.04232      0.33247
     7.85786      0.01454      0.72527      0.04253      0.33642
     7.86787      0.01393      0.72613      0.04281      0.34035
     7.87788      0.01338      0.72704      0.04318      0.34427
     7.88789      0.01289      0.72797      0.04365      0.34819
     7.89790      0.01244      0.72893      0.04422      0.35209
     7.90791      0.01205      0.72990      0.04492      0.35597
     7.91792      0.01169      0.73087      0.04574      0.35984
     7.92793      0.01138      0.73184      0.04672      0.36367
     7.93794      0.01109      0.73282      0.04787      0.36747
     7.94795      0.01083      0.73379      0.04921      0.37122
     7.95796      0.01060      0.73475      0.05076      0.37489
     7.96797      0.01039      0.73571      0.05256      0.37846
     7.97798      0.01021      0.73666      0.05461      0.38188
     7.98799      0.01003      0.73760      0.05695      0.38510
      7.9980       0.0099       0.7385       0.0596       0.3881
      8.0080       0.0097       0.7395       0.0625       0.3907
      8.0180       0.0096       0.7404       0.0657       0.3928
      8.0280       0.0095       0.7413       0.0692       0.3944
      8.0380       0.0094       0.7422       0.0728       0.3953
      8.0480       0.0093       0.7431       0.0764       0.3954
      8.0581       0.0092       0.7440       0.0797       0.3946
      8.0681       0.0091       0.7449       0.0826       0.3930
      8.0781       0.0090       0.7458       0.0847       0.3906
      8.0881       0.0090       0.7466       0.0859       0.3876
      8.0981       0.0089       0.7475       0.0859       0.3844
      8.1081       0.0089       0.7484       0.0848       0.3812
      8.1181       0.0088       0.7492       0.0826       0.3785
      8.1281       0.0088       0.7501       0.0795       0.3764
      8.1381       0.0087       0.7510       0.0759       0.3752
      8.1481       0.0087       0.7518       0.0720       0.3747
      8.1582       0.0087       0.7527       0.0680       0.3751
      8.1682       0.0087       0.7535       0.0640       0.3762
      8.1782       0.0087       0.7543       0.0603       0.3778
      8.1882       0.0087       0.7552       0.0568       0.3799
      8.1982       0.0087       0.7560       0.0536       0.3823
      8.2082       0.0087       0.7569       0.0507       0.3850
      8.2182       0.0087       0.7577       0.0482       0.3879
      8.2282       0.0087       0.7585       0.0458       0.3908
      8.2382       0.0088       0.7594       0.0437       0.3939
      8.2482       0.0088       0.7602       0.0419       0.3970
      8.2583       0.0089       0.7610       0.0402       0.4001
      8.2683       0.0089       0.7619       0.0387       0.4033
      8.2783       0.0090       0.7627       0.0374       0.4064
      8.2883       0.0091       0.7635       0.0362       0.4095
      8.2983       0.0092       0.7644       0.0351       0.4125
      8.3083       0.0094       0.7652       0.0341       0.4156
      8.3183       0.0095       0.7660       0.0332       0.4186
      8.3283       0.0097       0.7668       0.0324       0.4215
      8.3383       0.0099       0.7677       0.0317       0.4244
     8.34835      0.01020      0.76846      0.03099      0.42732
     8.35836      0.01048      0.76925      0.03038      0.43017
     8.36837      0.01081      0.77002      0.02982      0.43299
     8.37838      0.01119      0.77077      0.02931      0.43577
     8.38839      0.01161      0.77147      0.02884      0.43852
     8.39840      0.01208      0.77212      0.02841      0.44124
     8.40841      0.01259      0.77271      0.02802      0.44393
     8.41842      0.01315      0.77321      0.02766      0.44660
     8.42843      0.01373      0.77360      0.02733      0.44924
     8.43844      0.01432      0.77387      0.02704      0.45185
     8.44845      0.01488      0.77400      0.02677      0.45444
     8.45846      0.01538      0.77399      0.02653      0.45701
     8.46847      0.01577      0.77386      0.02631      0.45956
     8.47848      0.01602      0.77362      0.02612      0.46209
     8.48849      0.01608      0.77332      0.02596      0.46461
     8.49850      0.01596      0.77302      0.02582      0.46711
     8.50851      0.01565      0.77277      0.02570      0.46959
     8.51852      0.01520      0.77262      0.02561      0.47206
     8.52853      0.01464      0.77260      0.02555      0.47452
     8.53854      0.01402      0.77271      0.02552      0.47697
     8.54855      0.01338      0.77296      0.02551      0.47941
     8.55856      0.01274      0.77332      0.02554      0.48185
     8.56857      0.01213      0.77378      0.02560      0.48427
     8.57858      0.01156      0.77432      0.02569      0.48669
     8.58859      0.01103      0.77492      0.02583      0.48911
     8.59860      0.01056      0.77557      0.02600      0.49152
     8.60861      0.01013      0.77625      0.02622      0.49392
      8.6186       0.0097       0.7769       0.0265       0.4963
      8.6286       0.0094       0.7777       0.0268       0.4987
      8.6386       0.0091       0.7784       0.0272       0.5011
      8.6486       0.0088       0.7791       0.0277       0.5035
    8.659       0.8575E-2    0.7799       0.2826E-1    0.5059   
    8.669       0.8355E-2    0.7806       0.2891E-1    0.5082   
    8.679       0.8158E-2    0.7813       0.2966E-1    0.5105   
    8.689       0.7981E-2    0.7820       0.3053E-1    0.5128   
    8.699       0.7821E-2    0.7827       0.3154E-1    0.5150   
    8.709       0.7677E-2    0.7835       0.3269E-1    0.5171   
    8.719       0.7546E-2    0.7842       0.3399E-1    0.5192   
    8.729       0.7428E-2    0.7849       0.3547E-1    0.5211   
    8.739       0.7321E-2    0.7856       0.3710E-1    0.5227   
    8.749       0.7224E-2    0.7863       0.3890E-1    0.5242   
    8.759       0.7136E-2    0.7869       0.4082E-1    0.5253   
    8.769       0.7055E-2    0.7876       0.4281E-1    0.5261   
    8.779       0.6983E-2    0.7883       0.4480E-1    0.5264   
    8.789       0.6917E-2    0.7890       0.4667E-1    0.5262   
    8.799       0.6857E-2    0.7896       0.4828E-1    0.5255   
    8.809       0.6803E-2    0.7903       0.4947E-1    0.5244   
    8.819       0.6755E-2    0.7910       0.5011E-1    0.5230   
    8.829       0.6712E-2    0.7916       0.5013E-1    0.5215   
    8.839       0.6674E-2    0.7923       0.4950E-1    0.5200   
    8.849       0.6641E-2    0.7929       0.4828E-1    0.5187   
    8.859       0.6613E-2    0.7936       0.4660E-1    0.5178   
    8.869       0.6589E-2    0.7942       0.4459E-1    0.5174   
    8.879       0.6571E-2    0.7948       0.4241E-1    0.5174   
    8.889       0.6557E-2    0.7955       0.4019E-1    0.5178   
    8.899       0.6548E-2    0.7961       0.3801E-1    0.5187   
    8.909       0.6544E-2    0.7968       0.3593E-1    0.5198   
    8.919       0.6545E-2    0.7974       0.3401E-1    0.5212   
    8.929       0.6552E-2    0.7980       0.3225E-1    0.5228   
    8.939       0.6565E-2    0.7987       0.3065E-1    0.5246   
    8.949       0.6584E-2    0.7993       0.2922E-1    0.5264   
    8.959       0.6610E-2    0.7999       0.2793E-1    0.5283   
    8.969       0.6644E-2    0.8005       0.2677E-1    0.5303   
    8.979       0.6685E-2    0.8012       0.2574E-1    0.5323   
    8.989       0.6736E-2    0.8018       0.2482E-1    0.5342   
    8.999       0.6797E-2    0.8024       0.2399E-1    0.5362   
    9.009       0.6870E-2    0.8031       0.2325E-1    0.5382   
    9.019       0.6955E-2    0.8037       0.2258E-1    0.5402   
    9.029       0.7054E-2    0.8043       0.2198E-1    0.5421   
    9.039       0.7169E-2    0.8050       0.2143E-1    0.5441   
    9.049       0.7302E-2    0.8056       0.2094E-1    0.5460   
    9.059       0.7456E-2    0.8062       0.2049E-1    0.5479   
    9.069       0.7634E-2    0.8069       0.2009E-1    0.5497   
    9.079       0.7837E-2    0.8075       0.1972E-1    0.5516   
    9.089       0.8070E-2    0.8081       0.1938E-1    0.5534   
    9.099       0.8335E-2    0.8087       0.1907E-1    0.5552   
    9.109       0.8637E-2    0.8092       0.1878E-1    0.5570   
    9.119       0.8976E-2    0.8098       0.1852E-1    0.5588   
      9.1291       0.0094       0.8103       0.0183       0.5606
      9.1391       0.0098       0.8107       0.0181       0.5623
     9.14915      0.01022      0.81111      0.01787      0.56406
     9.15916      0.01070      0.81141      0.01769      0.56578
     9.16917      0.01119      0.81162      0.01753      0.56748
     9.17918      0.01166      0.81171      0.01738      0.56917
     9.18919      0.01209      0.81169      0.01725      0.57085
     9.19920      0.01244      0.81156      0.01713      0.57252
     9.20921      0.01267      0.81134      0.01703      0.57418
     9.21922      0.01276      0.81106      0.01694      0.57583
     9.22923      0.01270      0.81077      0.01686      0.57747
     9.23924      0.01249      0.81052      0.01680      0.57910
     9.24925      0.01215      0.81034      0.01675      0.58072
     9.25926      0.01171      0.81025      0.01672      0.58234
     9.26927      0.01122      0.81028      0.01670      0.58395
     9.27928      0.01069      0.81042      0.01670      0.58556
     9.28929      0.01017      0.81066      0.01672      0.58716
      9.2993       0.0097       0.8110       0.0168       0.5888
    9.309       0.9197E-2    0.8114       0.1681E-1    0.5904   
    9.319       0.8763E-2    0.8118       0.1689E-1    0.5920   
    9.329       0.8367E-2    0.8123       0.1699E-1    0.5935   
    9.339       0.8011E-2    0.8128       0.1712E-1    0.5951   
    9.349       0.7692E-2    0.8133       0.1728E-1    0.5967   
    9.359       0.7406E-2    0.8139       0.1747E-1    0.5983   
    9.369       0.7151E-2    0.8145       0.1770E-1    0.5999   
    9.379       0.6924E-2    0.8150       0.1797E-1    0.6015   
    9.389       0.6721E-2    0.8156       0.1829E-1    0.6030   
    9.399       0.6540E-2    0.8161       0.1866E-1    0.6046   
    9.409       0.6377E-2    0.8167       0.1909E-1    0.6061   
    9.419       0.6231E-2    0.8173       0.1959E-1    0.6077   
    9.429       0.6100E-2    0.8178       0.2017E-1    0.6092   
    9.439       0.5982E-2    0.8184       0.2082E-1    0.6106   
    9.449       0.5876E-2    0.8189       0.2157E-1    0.6120   
    9.459       0.5780E-2    0.8195       0.2242E-1    0.6133   
    9.469       0.5693E-2    0.8200       0.2336E-1    0.6145   
    9.479       0.5615E-2    0.8205       0.2441E-1    0.6156   
    9.489       0.5544E-2    0.8211       0.2553E-1    0.6165   
    9.499       0.5479E-2    0.8216       0.2672E-1    0.6172   
    9.510       0.5421E-2    0.8221       0.2791E-1    0.6176   
    9.520       0.5369E-2    0.8226       0.2907E-1    0.6178   
    9.530       0.5321E-2    0.8231       0.3009E-1    0.6177   
    9.540       0.5279E-2    0.8237       0.3090E-1    0.6173   
    9.550       0.5241E-2    0.8242       0.3141E-1    0.6166   
    9.560       0.5207E-2    0.8247       0.3156E-1    0.6159   
    9.570       0.5178E-2    0.8252       0.3132E-1    0.6151   
    9.580       0.5152E-2    0.8257       0.3071E-1    0.6145   
    9.590       0.5131E-2    0.8262       0.2980E-1    0.6140   
    9.600       0.5113E-2    0.8267       0.2866E-1    0.6138   
    9.610       0.5099E-2    0.8272       0.2739E-1    0.6139   
    9.620       0.5089E-2    0.8277       0.2606E-1    0.6142   
    9.630       0.5083E-2    0.8282       0.2475E-1    0.6148   
    9.640       0.5081E-2    0.8287       0.2348E-1    0.6156   
    9.650       0.5083E-2    0.8292       0.2230E-1    0.6165   
    9.660       0.5089E-2    0.8297       0.2122E-1    0.6176   
    9.670       0.5100E-2    0.8301       0.2023E-1    0.6188   
    9.680       0.5116E-2    0.8306       0.1934E-1    0.6200   
    9.690       0.5138E-2    0.8311       0.1854E-1    0.6213   
    9.700       0.5165E-2    0.8316       0.1782E-1    0.6226   
    9.710       0.5199E-2    0.8321       0.1718E-1    0.6240   
    9.720       0.5240E-2    0.8326       0.1661E-1    0.6253   
    9.730       0.5289E-2    0.8331       0.1610E-1    0.6267   
    9.740       0.5346E-2    0.8336       0.1564E-1    0.6280   
    9.750       0.5414E-2    0.8341       0.1522E-1    0.6294   
    9.760       0.5492E-2    0.8346       0.1485E-1    0.6307   
    9.770       0.5583E-2    0.8351       0.1451E-1    0.6320   
    9.780       0.5688E-2    0.8356       0.1421E-1    0.6333   
    9.790       0.5809E-2    0.8361       0.1393E-1    0.6346   
    9.800       0.5947E-2    0.8365       0.1368E-1    0.6359   
    9.810       0.6106E-2    0.8370       0.1345E-1    0.6372   
    9.820       0.6288E-2    0.8375       0.1324E-1    0.6384   
    9.830       0.6496E-2    0.8380       0.1305E-1    0.6397   
    9.840       0.6732E-2    0.8384       0.1288E-1    0.6409   
    9.850       0.6998E-2    0.8389       0.1272E-1    0.6421   
    9.860       0.7296E-2    0.8393       0.1257E-1    0.6433   
    9.870       0.7628E-2    0.8396       0.1244E-1    0.6446   
    9.880       0.7989E-2    0.8399       0.1232E-1    0.6458   
    9.890       0.8376E-2    0.8402       0.1221E-1    0.6469   
    9.900       0.8779E-2    0.8404       0.1211E-1    0.6481   
    9.910       0.9180E-2    0.8405       0.1201E-1    0.6493   
    9.920       0.9558E-2    0.8405       0.1193E-1    0.6505   
    9.930       0.9886E-2    0.8404       0.1186E-1    0.6516   
     9.93994      0.01013      0.84024      0.01179      0.65277
     9.94995      0.01027      0.84001      0.01174      0.65392
     9.95996      0.01029      0.83974      0.01169      0.65506
     9.96997      0.01018      0.83949      0.01165      0.65619
    9.980       0.9953E-2    0.8393       0.1162E-1    0.6573   
    9.990       0.9632E-2    0.8391       0.1160E-1    0.6585   
    10.00       0.9247E-2    0.8391       0.1159E-1    0.6596   
# 
# 11/06/2019 at 14:05 YAMBO @ dufour [start]
# 11/06/2019 at 14:06                [end]
#  
# Timing   [Min/Max/Average]: 51s/51s/51s
#
# .-Input file : Outputs/00_bse_00_bse.in
# | optics                         # [R OPT] Optics
# | bse                            # [R BSE] Bethe Salpeter Equation.
# | bsk                            # [R BSK] Bethe Salpeter Equation kernel
# | bss                            # [R BSS] Bethe Salpeter Equation solver
# | em1s                           # [R Xs] Static Inverse Dielectric Matrix
# | BoseTemp= 0.000000     eV      # Bosonic Temperature
# | X_Threads= 1                   # [OPENMP/X] Number of threads for response functions
# | DIP_Threads= 1                 # [OPENMP/X] Number of threads for dipoles
# | K_Threads= 1                   # [OPENMP/BSK] Number of threads for response functions
# | Chimod= "HARTREE"              # [X] IP/Hartree/ALDA/LRC/PF/BSfxc
# | BSEmod= "retarded"             # [BSE] resonant/retarded/coupling
# | BSKmod= "SEX"                  # [BSE] IP/Hartree/HF/ALDA/SEX
# | BSSmod= "d"                    # [BSS] (h)aydock/(d)iagonalization/(i)nversion/(t)ddft`
# | BSENGexx=  4531        RL      # [BSK] Exchange components
# | BSENGBlk= 109          RL      # [BSK] Screened interaction block size
# | #WehCpl                        # [BSK] eh interaction included also in coupling
# | % KfnQP_E
# |  3.500000 | 1.000000 | 1.000000 |        # [EXTQP BSK BSS] E parameters  (c/v) eV|adim|adim
# | %
# | % BEnRange
# |   0.00000 | 10.00000 | eV      # [BSS] Energy range
# | %
# | % BDmRange
# |   0.10000 |  0.10000 | eV      # [BSS] Damping range
# | %
# | BEnSteps= 1000                 # [BSS] Energy steps
# | % BLongDir
# | 0.1000E-4 | 0.000    | 0.000    |        # [BSS] [cc] Electric Field
# | %
# | % BSEBands
# |  1 | 2 |                       # [BSK] Bands range
# | %
# | WRbsWF                         # [BSS] Write to disk excitonic the WFs
# | % QpntsRXs
# |    1 |  41 |                   # [Xs] Transferred momenta
# | %
# | % BndsRnXs
# |   1 | 20 |                     # [Xs] Polarization function bands
# | %
# | NGsBlkXs= 109          RL      # [Xs] Response block size
# | % DmRngeXs
# |   0.10000 |  0.10000 | eV      # [Xs] Damping range
# | %
# | % LongDrXs
# | 0.1000E-4 | 0.000    | 0.000    |        # [Xs] [cc] Electric Field
# | %
