#  __      __   ______   __       __  _______    ______     
# |  \    /  \ /      \ |  \     /  \|       \  /      \    
#  \$$\  /  $$|  $$$$$$\| $$\   /  $$| $$$$$$$\|  $$$$$$\   
#   \$$\/  $$ | $$__| $$| $$$\ /  $$$| $$__/ $$| $$  | $$   
#    \$$  $$  | $$    $$| $$$$\  $$$$| $$    $$| $$  | $$   
#     \$$$$   | $$$$$$$$| $$\$$ $$ $$| $$$$$$$\| $$  | $$   
#     | $$    | $$  | $$| $$ \$$$| $$| $$__/ $$| $$__/ $$   
#     | $$    | $$  | $$| $$  \$ | $$| $$    $$ \$$    $$   
#      \$$     \$$   \$$ \$$      \$$ \$$$$$$$   \$$$$$$    
#                                                           
#               Version 4.0.0 Revision 4196                 
#                        MPI Build                          
#                http://www.yambo-code.org                  
#
# Absorption @ Q(1) [q->0 direction] : 0.000    0.1000E-4  0.000   
#
#
# - Energies      are Slater exchange(X)+Perdew & Zunger(C)+Scissor
# - Wavefunctions are Slater exchange(X)+Perdew & Zunger(C)
#
# - The Green`s function is resonant -
# - Using the Length Gauge -
# - [r,Vnl] *is* included -
#
#   BSK|Identifier              :902
#      |Dimension               :96
#      |Bands                   :23 - 26
#      |Exchange           [res]: yes
#      |Correlation        [res]: yes
#      |Kernel`s coupling       : no
#      |Exchange           [cpl]: no
#      |W interaction is bare   : no
#      |Correlation        [cpl]: no
#      |ALDA kernel in R-space  : no
#      |RL vectors    [exchange]:995
#      |RL vectors [correlation]:201
#      |E/h energy range    [ev]:-1.000000 - -1.000000
#      |Coupling range     [o/o]: 100.0000 -  100.0000
#    W |Interaction is diagonal : no
#      |Matrix size             :201
#      |Bands                   :1 - 50
#      |e/h energy range    [ev]:-1.000000 - -1.000000
#      |Poles              [o/o]: 100.0000
#      |Rl vectors in the sum   :995
#      |[r,Vnl] included        : yes
#      |Field direction         :0.7071E-5 0.7071E-5  0.000000
#      |Coulomb Cutoff          :none
#      |xc-Kernel               :none
#   RIM|RL components      [col]:0
#      |Random points      [col]:0
#  
#   Haydock|Accuracy (requested) [o/o]:   0.0100
#          |Accuracy (reached)   [o/o]:   0.0024
#          |Iteration                 :13
#
#  E/ev[1]    eps /Im[2] eps /Re[3] eps0/Im[4] eps0/Re[5] eps`/Im[6] eps`/Re[7]
#
   0.00000    0.92491   15.16134    0.52207   11.64784    0.92491   15.16134
 0.5017E-2  0.9529      15.32     0.5350      11.74     0.9529      15.32   
 0.1003E-1  0.9819      15.47     0.5482      11.82     0.9819      15.47   
 0.1505E-1   1.012      15.63     0.5618      11.91      1.012      15.63   
   0.02007    1.04312   15.79814    0.57583   12.00536    1.04312   15.79814
   0.02508    1.07549   15.96635    0.59025   12.09853    1.07549   15.96635
   0.03010    1.10910   16.13840    0.60508   12.19330    1.10910   16.13840
   0.03512    1.14401   16.31443    0.62035   12.28971    1.14401   16.31443
   0.04013    1.18028   16.49458    0.63606   12.38780    1.18028   16.49458
   0.04515    1.21798   16.67899    0.65224   12.48761    1.21798   16.67899
   0.05017    1.25719   16.86781    0.66890   12.58919    1.25719   16.86781
   0.05518    1.29799   17.06120    0.68607   12.69259    1.29799   17.06120
   0.06020    1.34045   17.25933    0.70376   12.79785    1.34045   17.25933
   0.06522    1.38467   17.46236    0.72199   12.90503    1.38467   17.46236
   0.07023    1.43073   17.67048    0.74079   13.01418    1.43073   17.67048
   0.07525    1.47874   17.88388    0.76017   13.12536    1.47874   17.88388
   0.08027    1.52881   18.10276    0.78016   13.23861    1.52881   18.10276
   0.08528    1.58105   18.32733    0.80078   13.35400    1.58105   18.32733
   0.09030    1.63558   18.55782    0.82207   13.47158    1.63558   18.55781
   0.09532    1.69253   18.79444    0.84404   13.59144    1.69253   18.79444
   0.10033    1.75204   19.03744    0.86672   13.71361    1.75204   19.03744
   0.10535    1.81427   19.28709    0.89016   13.83818    1.81427   19.28709
   0.11037    1.87937   19.54365    0.91437   13.96521    1.87937   19.54365
   0.11538    1.94751   19.80741    0.93939   14.09479    1.94751   19.80741
   0.12040    2.01889   20.07866    0.96525   14.22698    2.01889   20.07866
   0.12542    2.09369   20.35772    0.99200   14.36187    2.09369   20.35772
   0.13043    2.17214   20.64493    1.01967   14.49952    2.17214   20.64493
   0.13545    2.25447   20.94063    1.04831   14.64005    2.25447   20.94063
   0.14047    2.34093   21.24520    1.07794   14.78352    2.34093   21.24520
   0.14548    2.43178   21.55903    1.10864   14.93003    2.43178   21.55903
   0.15050    2.52733   21.88254    1.14043   15.07969    2.52733   21.88254
   0.15552    2.62788   22.21616    1.17337   15.23259    2.62788   22.21616
   0.16054    2.73377   22.56036    1.20752   15.38883    2.73377   22.56036
   0.16555    2.84539   22.91564    1.24292   15.54854    2.84539   22.91564
   0.17057    2.96313   23.28252    1.27966   15.71181    2.96313   23.28252
   0.17559    3.08744   23.66154    1.31778   15.87877    3.08744   23.66154
   0.18060    3.21879   24.05331    1.35735   16.04955    3.21879   24.05331
   0.18562    3.35771   24.45844    1.39845   16.22427    3.35771   24.45844
   0.19064    3.50476   24.87759    1.44116   16.40307    3.50476   24.87759
   0.19565    3.66058   25.31148    1.48555   16.58609    3.66058   25.31148
   0.20067    3.82584   25.76085    1.53171   16.77348    3.82584   25.76085
   0.20569    4.00130   26.22650    1.57974   16.96541    4.00130   26.22650
   0.21070    4.18777   26.70928    1.62973   17.16202    4.18777   26.70928
   0.21572    4.38618   27.21010    1.68178   17.36349    4.38618   27.21010
   0.22074    4.59751   27.72990    1.73602   17.57001    4.59751   27.72990
   0.22575    4.82288   28.26973    1.79255   17.78175    4.82288   28.26973
   0.23077    5.06350   28.83067    1.85150   17.99891    5.06350   28.83067
   0.23579    5.32073   29.41388    1.91301   18.22170    5.32073   29.41388
   0.24080    5.59607   30.02060    1.97723   18.45034    5.59607   30.02060
   0.24582    5.89119   30.65215    2.04431   18.68505    5.89119   30.65215
   0.25084    6.20797   31.30994    2.11442   18.92608    6.20796   31.30994
   0.25585    6.54846   31.99544    2.18773   19.17366    6.54846   31.99544
   0.26087    6.91501   32.71025    2.26444   19.42807    6.91501   32.71025
   0.26589    7.31022   33.45605    2.34475   19.68958    7.31021   33.45605
   0.27090    7.73701   34.23460    2.42888   19.95849    7.73701   34.23460
   0.27592    8.19870   35.04776    2.51708   20.23510    8.19870   35.04776
   0.28094    8.69900   35.89753    2.60960   20.51974    8.69900   35.89753
   0.28595    9.24212   36.78593    2.70672   20.81274    9.24212   36.78593
   0.29097    9.83283   37.71511    2.80873   21.11448    9.83283   37.71511
   0.29599   10.47655   38.68727    2.91596   21.42531   10.47655   38.68727
   0.30100   11.17945   39.70463    3.02877   21.74566   11.17945   39.70463
   0.30602   11.94856   40.76943    3.14752   22.07593   11.94856   40.76944
   0.31104   12.79193   41.88387    3.27264   22.41659   12.79193   41.88387
   0.31605   13.71879   43.05002    3.40457   22.76809   13.71878   43.05002
   0.32107   14.73969   44.26971    3.54380   23.13093   14.73969   44.26971
   0.32609   15.86682   45.54445    3.69085   23.50565   15.86681   45.54445
   0.33110   17.11417   46.87517    3.84631   23.89279   17.11417   46.87517
   0.33612   18.49789   48.26199    4.01080   24.29295   18.49788   48.26200
   0.34114   20.03658   49.70393    4.18501   24.70675   20.03656   49.70393
   0.34615   21.75168   51.19832    4.36970   25.13484   21.75167   51.19833
   0.35117   23.66791   52.74030    4.56570   25.57792   23.66789   52.74032
   0.35619   25.81360   54.32189    4.77392   26.03673   25.81358   54.32191
   0.36120   28.22118   55.93089    4.99534   26.51203   28.22116   55.93092
   0.36622   30.92743   57.54942    5.23108   27.00466   30.92740   57.54945
   0.37124   33.97361   59.15192    5.48234   27.51546   33.97356   59.15195
   0.37625   37.40532   60.70268    5.75047   28.04535   37.40526   60.70272
   0.38127   41.27162   62.15266    6.03695   28.59529   41.27158   62.15275
   0.38629   45.62322   63.43555    6.34343   29.16629   45.62318   63.43567
   0.39130   50.50911   64.46321    6.67172   29.75940   50.50907   64.46335
   0.39632   55.97094   65.12068    7.02386   30.37571   55.97092   65.12087
   0.40134   62.03389   65.26163    7.40212   31.01639   62.03388   65.26187
   0.40635   68.69353   64.70556    7.80901   31.68261   68.69362   64.70587
   0.41137   75.89806   63.23943    8.24737   32.37560   75.89821   63.23981
   0.41639   83.52601   60.62723    8.72035   33.09661   83.52625   60.62770
   0.42140   91.36327   56.63235    9.23149   33.84691   91.36371   56.63285
   0.42642   99.08659   51.05577    9.78480   34.62776   99.08731   51.05628
    0.4314   106.2642    43.7904    10.3848    35.4404   106.2652    43.7908
    0.4365   112.3868    34.8816    11.0364    36.2860   112.3882    34.8818
    0.4415   116.9372    24.5747    11.7455    37.1656   116.9389    24.5745
    0.4465   119.4879    13.3219    12.5185    38.0801   119.4899    13.3211
    0.4515   119.8004     1.7321    13.3627    39.0303   119.8024     1.7307
    0.4565   117.8853    -9.5324    14.2864    40.0164   117.8871    -9.5348
    0.4615   113.9975   -19.8771    15.2990    41.0384   113.9988   -19.8802
    0.4666   108.5681   -28.8715    16.4111    42.0953   108.5685   -28.8755
    0.4716   102.1045   -36.2907    17.6348    43.1857   102.1038   -36.2951
   0.47659   95.09808  -42.10086   18.98364   44.30661   95.09600  -42.10543
   0.48161   87.96101  -46.41129   20.47308   45.45378   87.95733  -46.41564
   0.48662   80.99992  -49.41615   22.12033   46.62084   80.99477  -49.41977
   0.49164   74.41702  -51.34401   23.94464   47.79881   74.41055  -51.34638
   0.49666   68.32603  -52.42249   25.96726   48.97526   68.31847  -52.42318
   0.50167   62.77262  -52.85772   28.21140   50.13343   62.76451  -52.85631
   0.50669   57.75512  -52.82423   30.70189   51.25098   57.74698  -52.82045
   0.51171   53.24068  -52.46200   33.46457   52.29856   53.23337  -52.45578
   0.51672   49.17918  -51.87736   36.52515   53.23827   49.17340  -51.86889
   0.52174   45.51323  -51.14602   39.90744   54.02192   45.50976  -51.13582
   0.52676   42.18643  -50.31778   43.63070   54.58930   42.18576  -50.30660
   0.53177   39.14911  -49.42227   47.70564   54.86704   39.15147  -49.41103
   0.53679   36.36144  -48.47548   52.12957   54.76831   36.36666  -48.46506
   0.54181   33.79396  -47.48576   56.87996   54.19428   33.80162  -47.47695
   0.54682   31.42617  -46.45882   61.90752   53.03831   31.43563  -46.45214
   0.55184   29.24366  -45.40059   67.12984   51.19360   29.25421  -45.39629
   0.55686   27.23552  -44.31841   72.42735   48.56472   27.24649  -44.31652
   0.56187   25.39207  -43.22087   77.64420   45.08196   25.40294  -43.22127
   0.56689   23.70374  -42.11715   82.59558   40.71638   23.71406  -42.11957
   0.57191   22.16047  -41.01610   87.08246   35.49096   22.16993  -41.02022
   0.57692   20.75176  -39.92561   90.91039   29.48498   20.76016  -39.93115
   0.58194   19.46693  -38.85231   93.90843   22.82951   19.47417  -38.85901
   0.58696   18.29546  -37.80148   95.94315   15.69630   18.30148  -37.80907
   0.59197   17.22721  -36.77701   96.92629    8.28424   17.23198  -36.78529
   0.59699   16.25270  -35.78166   96.81792    0.80772   16.25623  -35.79047
   0.60201   15.36312  -34.81720   95.62825   -6.51440   15.36540  -34.82637
   0.60702   14.55046  -33.88459   93.41957  -13.46988   14.55153  -33.89402
   0.61204   13.80754  -32.98420   90.30545  -19.86786   13.80738  -32.99377
   0.61706   13.12788  -32.11594   86.44418  -25.55521   13.12649  -32.12555
   0.62207   12.50577  -31.27939   82.02405  -30.43005   12.50312  -31.28895
   0.62709   11.93613  -30.47393   77.24362  -34.44803   11.93220  -30.48333
   0.63211   11.41450  -29.69882   72.29185  -37.61895   11.40927  -29.70795
   0.63712   10.93696  -28.95323   67.33223  -39.99638   10.93038  -28.96197
   0.64214   10.50008  -28.23637   62.49435  -41.66301   10.49209  -28.24455
   0.64716   10.10084  -27.54749   57.87196  -42.71645   10.09141  -27.55490
   0.65217    9.73660  -26.88592   53.52592  -43.25749    9.72568  -26.89234
   0.65719    9.40502  -26.25114   49.48985  -43.38190    9.39261  -26.25630
   0.66221    9.10401  -25.64282   45.77648  -43.17578    9.09013  -25.64637
   0.66722    8.83164  -25.06082   42.38385  -42.71337    8.81641  -25.06237
   0.67224    8.58610  -24.50521   39.30013  -42.05683    8.56970  -24.50431
   0.67726    8.36556  -23.97632   36.50763  -41.25703    8.34832  -23.97250
   0.68227    8.16809  -23.47467   33.98566  -40.35486    8.15052  -23.46744
   0.68729    7.99156  -23.00097   31.71247  -39.38275    7.97434  -22.98990
   0.69231    7.83349  -22.55602   29.66653  -38.36616    7.81757  -22.54083
   0.69732    7.69098  -22.14058   27.82738  -37.32484    7.67752  -22.12120
   0.70234    7.56069  -21.75516   26.17606  -36.27411    7.55097  -21.73192
   0.70736    7.43875  -21.39982   24.69526  -35.22572    7.43411  -21.37352
   0.71237    7.32102  -21.07394   23.36948  -34.18873    7.32261  -21.04591
   0.71739    7.20319  -20.77599   22.18492  -33.17015    7.21173  -20.74804
   0.72241    7.08118  -20.50344   21.12942  -32.17549    7.09672  -20.47773
   0.72742    6.95148  -20.25281   20.19229  -31.20919    6.97324  -20.23151
   0.73244    6.81147  -20.01987   19.36419  -30.27505    6.83787  -20.00478
   0.73746    6.65968  -19.79994   18.63686  -29.37644    6.68854  -19.79216
   0.74247    6.49585  -19.58829   18.00303  -28.51667    6.52478  -19.58803
   0.74749    6.32088  -19.38056   17.45607  -27.69911    6.34768  -19.38713
   0.75251    6.13664  -19.17301   16.98982  -26.92741    6.15961  -19.18507
   0.75753    5.94566  -18.96280   16.59825  -26.20562    5.96380  -18.97865
   0.76254    5.75079  -18.74806   16.27512  -25.53821    5.76379  -18.76596
   0.76756    5.55492  -18.52784   16.01361  -24.93003    5.56304  -18.54627
   0.77258    5.36071  -18.30200   15.80594  -24.38614    5.36456  -18.31978
   0.77759    5.17043  -18.07101   15.64299  -23.91145    5.17082  -18.08737
   0.78261    4.98587  -17.83577   15.51401  -23.51022    4.98361  -17.85024
   0.78763    4.80831  -17.59740   15.40652  -23.18538    4.80417  -17.60982
   0.79264    4.63859  -17.35712   15.30649  -22.93763    4.63322  -17.36750
   0.79766    4.47717  -17.11611   15.19887  -22.76471    4.47108  -17.12458
   0.80268    4.32419  -16.87545   15.06857  -22.66068    4.31777  -16.88221
   0.80769    4.17958  -16.63609   14.90175  -22.61570    4.17311  -16.64136
   0.81271    4.04308  -16.39882   14.68726  -22.61634    4.03675  -16.40283
   0.81773    3.91435  -16.16430   14.41792  -22.64658    3.90829  -16.16724
   0.82274    3.79297  -15.93302   14.09131  -22.68925    3.78727  -15.93509
   0.82776    3.67852  -15.70539   13.70987  -22.72779    3.67320  -15.70674
   0.83278    3.57053  -15.48168   13.28028  -22.74784    3.56561  -15.48246
   0.83779    3.46858  -15.26209   12.81228  -22.73834    3.46405  -15.26241
   0.84281    3.37223  -15.04676   12.31722  -22.69208    3.36808  -15.04671
   0.84783    3.28109  -14.83576   11.80672  -22.60559    3.27730  -14.83541
   0.85284    3.19479  -14.62911   11.29155  -22.47863    3.19133  -14.62853
   0.85786    3.11298  -14.42679   10.78097  -22.31340    3.10983  -14.42603
   0.86288    3.03534  -14.22877   10.28234  -22.11373    3.03247  -14.22787
   0.86789    2.96157  -14.03499    9.80115  -21.88435    2.95898  -14.03399
   0.87291    2.89143  -13.84538    9.34113  -21.63031    2.88907  -13.84429
   0.87793    2.82465  -13.65984    8.90455  -21.35656    2.82251  -13.65870
   0.88294    2.76103  -13.47828    8.49251  -21.06768    2.75908  -13.47710
   0.88796    2.70035  -13.30061    8.10522  -20.76779    2.69858  -13.29939
   0.89298    2.64244  -13.12671    7.74223  -20.46042    2.64083  -13.12547
   0.89799    2.58712  -12.95647    7.40269  -20.14856    2.58566  -12.95522
   0.90301    2.53425  -12.78979    7.08545  -19.83468    2.53292  -12.78854
   0.90803    2.48368  -12.62657    6.78921  -19.52082    2.48247  -12.62531
   0.91304    2.43529  -12.46669    6.51260  -19.20856    2.43419  -12.46544
   0.91806    2.38897  -12.31005    6.25425  -18.89921    2.38797  -12.30880
   0.92308    2.34460  -12.15655    6.01283  -18.59373    2.34370  -12.15531
   0.92809    2.30209  -12.00609    5.78704  -18.29288    2.30128  -12.00486
   0.93311    2.26136  -11.85856    5.57568  -17.99720    2.26062  -11.85734
   0.93813    2.22233  -11.71388    5.37763  -17.70711    2.22166  -11.71268
   0.94314    2.18491  -11.57196    5.19183  -17.42286    2.18432  -11.57076
   0.94816    2.14906  -11.43270    5.01734  -17.14464    2.14853  -11.43151
   0.95318    2.11471  -11.29601    4.85327  -16.87252    2.11424  -11.29483
   0.95819    2.08180  -11.16181    4.69883  -16.60653    2.08138  -11.16064
   0.96321    2.05029  -11.03003    4.55328  -16.34666    2.04993  -11.02886
   0.96823    2.02013  -10.90057    4.41595  -16.09283    2.01982  -10.89941
   0.97324    1.99130  -10.77337    4.28624  -15.84495    1.99104  -10.77222
   0.97826    1.96375  -10.64836    4.16359  -15.60291    1.96353  -10.64722
   0.98328    1.93745  -10.52545    4.04751  -15.36658    1.93729  -10.52432
   0.98829    1.91240  -10.40460    3.93755  -15.13582    1.91227  -10.40347
   0.99331    1.88855  -10.28573    3.83327  -14.91049    1.88847  -10.28460
   0.99833    1.86591  -10.16878    3.73432  -14.69041    1.86588  -10.16765
   1.00334    1.84446  -10.05369    3.64033  -14.47544    1.84447  -10.05257
   1.00836    1.82420   -9.94041    3.55100  -14.26542    1.82425   -9.93929
   1.01338    1.80512   -9.82888    3.46604  -14.06019    1.80521   -9.82776
   1.01839    1.78722   -9.71906    3.38519  -13.85959    1.78736   -9.71794
   1.02341    1.77052   -9.61090    3.30821  -13.66348    1.77070   -9.60978
   1.02843    1.75503   -9.50436    3.23489  -13.47169    1.75526   -9.50324
   1.03344    1.74077   -9.39941    3.16501  -13.28408    1.74104   -9.39828
   1.03846    1.72775   -9.29600    3.09841  -13.10052    1.72807   -9.29488
   1.04348    1.71601   -9.19412    3.03491  -12.92085    1.71639   -9.19300
   1.04850    1.70558   -9.09374    2.97437  -12.74494    1.70601   -9.09262
   1.05351    1.69650   -8.99486    2.91665  -12.57267    1.69698   -8.99373
   1.05853    1.68881   -8.89746    2.86161  -12.40390    1.68935   -8.89634
   1.06355    1.68256   -8.80155    2.80916  -12.23852    1.68317   -8.80043
   1.06856    1.67781   -8.70715    2.75918  -12.07640    1.67849   -8.70604
   1.07358    1.67462   -8.61428    2.71158  -11.91744    1.67536   -8.61317
   1.07860    1.67304   -8.52298    2.66628  -11.76152    1.67387   -8.52189
   1.08361    1.67316   -8.43332    2.62320  -11.60854    1.67406   -8.43223
   1.08863    1.67503   -8.34536    2.58228  -11.45840    1.67602   -8.34429
   1.09365    1.67874   -8.25920    2.54347  -11.31101    1.67982   -8.25817
   1.09866    1.68434   -8.17498    2.50671  -11.16627    1.68551   -8.17397
   1.10368    1.69189   -8.09282    2.47196  -11.02410    1.69317   -8.09185
   1.10870    1.70146   -8.01293    2.43919  -10.88442    1.70283   -8.01200
   1.11371    1.71306   -7.93549    2.40837  -10.74714    1.71455   -7.93463
   1.11873    1.72672   -7.86077    2.37948  -10.61220    1.72832   -7.85998
   1.12375    1.74241   -7.78904    2.35252  -10.47954    1.74412   -7.78834
   1.12876    1.76006   -7.72062    2.32747  -10.34909    1.76188   -7.72002
   1.13378    1.77955   -7.65585    2.30434  -10.22080    1.78149   -7.65537
   1.13880    1.80069   -7.59510    2.28315  -10.09462    1.80273   -7.59477
  1.143813   1.823190  -7.538756   2.263900  -9.970515   1.825326  -7.538582
  1.148829   1.846685  -7.487187   2.246626  -9.848451   1.848903  -7.487196
  1.153846   1.870688  -7.440742   2.231359  -9.728407   1.872972  -7.440956
  1.158863   1.894605  -7.399711   2.218137  -9.610371   1.896930  -7.400146
  1.163880   1.917728  -7.364286   2.207007  -9.494346   1.920068  -7.364960
  1.168896   1.939259  -7.334540   2.198022  -9.380348   1.941579  -7.335462
  1.173913   1.958326  -7.310371   2.191243  -9.268401   1.960591  -7.311546
  1.178930   1.974037  -7.291491   2.186731  -9.158561   1.976207  -7.292912
  1.183947   1.985524  -7.277390   2.184555  -9.050886   1.987562  -7.279050
  1.188963   1.992007  -7.267356   2.184786  -8.945475   1.993877  -7.269234
  1.193980   1.992864  -7.260488   2.187492  -8.842438   1.994535  -7.262553
  1.198997   1.987677  -7.255736   2.192741  -8.741918   1.989123  -7.257957
  1.204013   1.976274  -7.251975   2.200591  -8.644091   1.977480  -7.254313
  1.209030   1.958743  -7.248072   2.211087  -8.549166   1.959703  -7.250487
  1.214047   1.935423  -7.242956   2.224257  -8.457383   1.936139  -7.245412
  1.219064   1.906868  -7.235694   2.240099  -8.369032   1.907348  -7.238155
  1.224080   1.873791  -7.225526   2.258577  -8.284428   1.874053  -7.227964
  1.229097   1.837012  -7.211902   2.279603  -8.203935   1.837074  -7.214292
  1.234114   1.797387  -7.194474   2.303030  -8.127940   1.797271  -7.196799
  1.239130   1.755758  -7.173093   2.328633  -8.056867   1.755488  -7.175342
  1.244147   1.712915  -7.147778   2.356101  -7.991145   1.712511  -7.149943
  1.249164   1.669557  -7.118679   2.385016  -7.931207   1.669038  -7.120763
  1.254181   1.626283  -7.086046   2.414847  -7.877454   1.625666  -7.088050
  1.259197   1.583586  -7.050200   2.444940  -7.830243   1.582885  -7.052127
  1.264214   1.541854  -7.011489   2.474522  -7.789834   1.541081  -7.013346
  1.269231   1.501380  -6.970280   2.502708  -7.756369   1.500542  -6.972074
  1.274248   1.462372  -6.926934   2.528525  -7.729821   1.461476  -6.928672
  1.279264   1.424970  -6.881796   2.550946  -7.709973   1.424019  -6.883484
  1.284281   1.389255  -6.835184   2.568944  -7.696384   1.388250  -6.836830
  1.289298   1.355262  -6.787389   2.581544  -7.688380   1.354203  -6.788998
  1.294314   1.322990  -6.738670   2.587892  -7.685064   1.321876  -6.740249
  1.299331   1.292413  -6.689256   2.587318  -7.685346   1.291242  -6.690808
  1.304348   1.263486  -6.639345   2.579391  -7.687992   1.262253  -6.640875
  1.309365   1.236151  -6.589110   2.563945  -7.691693   1.234853  -6.590622
  1.314381   1.210341  -6.538699   2.541106  -7.695140   1.208972  -6.540194
  1.319398   1.185985  -6.488236   2.511264  -7.697097   1.184539  -6.489715
  1.324415   1.163012  -6.437829   2.475051  -7.696475   1.161483  -6.439291
  1.329432   1.141348  -6.387565   2.433277  -7.692373   1.139728  -6.389010
  1.334448   1.120924  -6.337518   2.386873  -7.684110   1.119205  -6.338945
  1.339465   1.101670  -6.287751   2.336826  -7.671237   1.099845  -6.289157
  1.344482   1.083524  -6.238314   2.284125  -7.653522   1.081583  -6.239697
  1.349498   1.066424  -6.189250   2.229703  -7.630921   1.064358  -6.190604
  1.354515   1.050315  -6.140595   2.174415  -7.603563   1.048114  -6.141912
  1.359532   1.035144  -6.092377   2.119009  -7.571689   1.032797  -6.093650
  1.364548   1.020863  -6.044619   2.064116  -7.535630   1.018360  -6.045839
  1.369565   1.007428  -5.997343   2.010252  -7.495778   1.004758  -5.998498
  1.374582   0.994800  -5.950564   1.957822  -7.452550   0.991951  -5.951642
  1.379599   0.982940  -5.904300   1.907134  -7.406368   0.979901  -5.905281
  1.384615   0.971817  -5.858562   1.858406  -7.357649   0.968577  -5.859430
  1.389632   0.961398  -5.813361   1.811786  -7.306781   0.957946  -5.814094
  1.394649   0.951657  -5.768713   1.767359  -7.254134   0.947983  -5.769286
  1.399666   0.942567  -5.724631   1.725167  -7.200040   0.938663  -5.725013
  1.404682   0.934104  -5.681126   1.685210  -7.144795   0.929963  -5.681286
  1.409699   0.926245  -5.638213   1.647463  -7.088672   0.921862  -5.638112
  1.414716   0.918967  -5.595908   1.611879  -7.031902   0.914342  -5.595505
  1.419732   0.912247  -5.554229   1.578399  -6.974692   0.907384  -5.553476
  1.424749   0.906061  -5.513196   1.546952  -6.917223   0.900970  -5.512042
  1.429766   0.900384  -5.472829   1.517466  -6.859651   0.895081  -5.471217
  1.434783   0.895187  -5.433151   1.489864  -6.802108   0.889699  -5.431020
  1.439799   0.890439  -5.394186   1.464069  -6.744715   0.884802  -5.391473
  1.444816   0.886102  -5.355959   1.440009  -6.687572   0.880366  -5.352599
  1.449833   0.882135  -5.318495   1.417608  -6.630768   0.876365  -5.314423
  1.454850   0.878489  -5.281816   1.396802  -6.574381   0.872765  -5.276970
  1.459866   0.875111  -5.245941   1.377525  -6.518485   0.869531  -5.240266
  1.464883   0.871938  -5.210888   1.359716  -6.463140   0.866618  -5.204339
  1.469900   0.868902  -5.176661   1.343319  -6.408405   0.863975  -5.169211
  1.474916   0.865929  -5.143261   1.328280  -6.354337   0.861544  -5.134902
  1.479933   0.862940  -5.110674   1.314549  -6.300985   0.859260  -5.101424
  1.484950   0.859857  -5.078876   1.302077  -6.248405   0.857050  -5.068784
  1.489967   0.856600  -5.047824   1.290816  -6.196645   0.854837  -5.036976
  1.494983   0.853096  -5.017467   1.280721  -6.145760   0.852538  -5.005984
  1.500000   0.849279  -4.987732   1.271742  -6.095798   0.850072  -4.975774
# 
# 03/23/2015 at 10:13 YAMBO @ anomaly [start]
# 03/23/2015 at 10:13                 [end]
#  
# Timing   [Min/Max/Average]: 13s/13s/13s
#
# .-Input file : yambo.in
# | optics                       # [R OPT] Optics
# | bse                          # [R BSE] Bethe Salpeter Equation.
# | bss                          # [R BSS] Bethe Salpeter Equation solver
# | DBsIOoff= "DIP"              # [IO] Space-separated list of DB with NO I/O. DB=(DIP,X,HF,COLLs,J,GF,CARRIERs,WF,W,SC,BS)
# | FFTGvecs=  995         RL    # [FFT] Plane-waves
# | BS_CPU= ""                   # [PARALLEL] CPUs for each role
# | BS_ROLEs= ""                 # [PARALLEL] CPUs roles (k,eh,t)
# | BS_nCPU_invert= 1            # [PARALLEL] CPUs for matrix inversion
# | BS_nCPU_diago= 1             # [PARALLEL] CPUs for matrix diagonalization
# | NonPDirs= "X"                # [X/BSS] Non periodic chartesian directions (X,Y,Z,XY...)
# | BSEmod= "resonant"           # [BSE] resonant/causal/x_coupling/xc_coupling
# | BSKmod= "SEX"                # [BSE] IP/Hartree/HF/ALDA/SEX/BSfxc
# | BSSmod= "h"                  # [BSS] (h)aydock/(d)iagonalization/(i)nversion/(t)ddft`
# | % KfnQP_E
# |  0.200000 | 1.000000 | 1.000000 |        # [EXTQP BSK BSS] E parameters  (c/v) eV|adim|adim
# | %
# | % BEnRange
# |  0.000000 | 1.500000 | eV    # [BSS] Energy range
# | %
# | % BDmRange
# |   0.03000 |  0.10000 | eV    # [BSS] Damping range
# | %
# | BEnSteps= 300                # [BSS] Energy steps
# | % BLongDir
# |  0.000    |0.1000E-4 | 0.000    |        # [BSS] [cc] Electric Field
# | %
# | % BSEBands
# |  23 | 26 |                   # [BSK] Bands range
# | %
# | BSHayTrs=   0.0100           # [BSS] [o/o] Haydock treshold. Strict(>0)/Average(<0)
