#                                                           
#  **    **    **     ****     ****  ******     *******     
# //**  **    ****   /**/**   **/** /*////**   **/////**    
#  //****    **//**  /**//** ** /** /*   /**  **     //**   
#   //**    **  //** /** //***  /** /******  /**      /**   
#    /**   **********/**  //*   /** /*//// **/**      /**   
#    /**  /**//////**/**   /    /** /*    /**//**     **    
#    /**  /**     /**/**        /** /*******  //*******     
#    //   //      // //         //  ///////    ///////      
#                                                           
#               Version 3.3.1 Revision 2054                 
#                http://www.yambo-code.org                  
#
#  E  [meV]   gF^2 sum   gF^2 Fan   gF^2  DW   gF^2 Cor   Gamma(G)   G   Bose   G F
#
  0.000     0.1320E-3  -.7711E-1  0.7720E-1  0.3904E-4  -.6430E-6  0.2951E-6  -.9381E-6
 0.1460     0.1523E-3  -.8882E-1  0.8893E-1  0.4497E-4  -.7446E-6  0.3415E-6  -.1086E-5
 0.2921     0.1756E-3  -.1022     0.1024     0.5178E-4  -.8624E-6  0.3952E-6  -.1258E-5
 0.4381     0.2024E-3  -.1176     0.1177     0.5957E-4  -.9989E-6  0.4574E-6  -.1456E-5
 0.5841     0.2331E-3  -.1351     0.1353     0.6846E-4  -.1157E-5  0.5293E-6  -.1687E-5
 0.7302     0.2682E-3  -.1551     0.1553     0.7860E-4  -.1341E-5  0.6125E-6  -.1953E-5
 0.8762     0.3085E-3  -.1778     0.1780     0.9014E-4  -.1554E-5  0.7088E-6  -.2263E-5
  1.022     0.3543E-3  -.2035     0.2038     0.1032E-3  -.1801E-5  0.8202E-6  -.2621E-5
  1.168     0.4067E-3  -.2326     0.2329     0.1180E-3  -.2088E-5  0.9492E-6  -.3037E-5
  1.314     0.4662E-3  -.2654     0.2657     0.1347E-3  -.2421E-5  0.1098E-5  -.3520E-5
  1.460     0.5337E-3  -.3021     0.3025     0.1535E-3  -.2809E-5  0.1271E-5  -.4080E-5
  1.606     0.6099E-3  -.3431     0.3435     0.1744E-3  -.3259E-5  0.1471E-5  -.4730E-5
  1.752     0.6960E-3  -.3886     0.3891     0.1977E-3  -.3782E-5  0.1702E-5  -.5484E-5
  1.898     0.7925E-3  -.4387     0.4393     0.2234E-3  -.4391E-5  0.1970E-5  -.6361E-5
  2.044     0.9007E-3  -.4936     0.4942     0.2516E-3  -.5100E-5  0.2280E-5  -.7380E-5
  2.190     0.1021E-2  -.5531     0.5538     0.2823E-3  -.5925E-5  0.2638E-5  -.8563E-5
  2.336     0.1155E-2  -.6171     0.6179     0.3154E-3  -.6887E-5  0.3053E-5  -.9940E-5
  2.483     0.1303E-2  -.6851     0.6861     0.3508E-3  -.8008E-5  0.3533E-5  -.1154E-4
  2.629     0.1465E-2  -.7565     0.7576     0.3882E-3  -.9314E-5  0.4088E-5  -.1340E-4
  2.775     0.1643E-2  -.8304     0.8316     0.4272E-3  -.1084E-4  0.4730E-5  -.1557E-4
  2.921     0.1837E-2  -.9054     0.9068     0.4672E-3  -.1261E-4  0.5474E-5  -.1809E-4
  3.067     0.2046E-2  -.9802     0.9818     0.5076E-3  -.1468E-4  0.6334E-5  -.2102E-4
  3.213     0.2273E-2  -1.053      1.055     0.5475E-3  -.1710E-4  0.7330E-5  -.2443E-4
  3.359     0.2517E-2  -1.122      1.124     0.5863E-3  -.1991E-4  0.8482E-5  -.2839E-4
  3.505     0.2780E-2  -1.185      1.187     0.6229E-3  -.2319E-4  0.9815E-5  -.3301E-4
  3.651     0.3064E-2  -1.240      1.242     0.6565E-3  -.2701E-4  0.1136E-4  -.3836E-4
  3.797     0.3371E-2  -1.284      1.287     0.6862E-3  -.3145E-4  0.1314E-4  -.4459E-4
  3.943     0.3704E-2  -1.318      1.321     0.7116E-3  -.3661E-4  0.1521E-4  -.5181E-4
  4.089     0.4068E-2  -1.338      1.342     0.7322E-3  -.4260E-4  0.1760E-4  -.6020E-4
  4.235     0.4470E-2  -1.346      1.349     0.7478E-3  -.4956E-4  0.2036E-4  -.6992E-4
  4.381     0.4919E-2  -1.339      1.343     0.7587E-3  -.5763E-4  0.2356E-4  -.8118E-4
  4.527     0.5423E-2  -1.320      1.324     0.7654E-3  -.6698E-4  0.2726E-4  -.9423E-4
  4.673     0.5996E-2  -1.288      1.294     0.7688E-3  -.7780E-4  0.3153E-4  -.1093E-3
  4.819     0.6652E-2  -1.247      1.253     0.7700E-3  -.9033E-4  0.3648E-4  -.1268E-3
  4.965     0.7408E-2  -1.197      1.203     0.7705E-3  -.1048E-3  0.4221E-4  -.1470E-3
  5.111     0.8285E-2  -1.140      1.148     0.7718E-3  -.1216E-3  0.4883E-4  -.1704E-3
  5.257     0.9305E-2  -1.079      1.088     0.7757E-3  -.1410E-3  0.5648E-4  -.1974E-3
  5.403     0.1049E-1  -1.017      1.027     0.7838E-3  -.1634E-3  0.6533E-4  -.2287E-3
  5.549     0.1188E-1  -.9549     0.9659     0.7982E-3  -.1892E-3  0.7557E-4  -.2648E-3
  5.695     0.1349E-1  -.8948     0.9075     0.8206E-3  -.2191E-3  0.8740E-4  -.3065E-3
  5.841     0.1537E-1  -.8386     0.8531     0.8529E-3  -.2537E-3  0.1011E-3  -.3547E-3
  5.987     0.1757E-1  -.7877     0.8044     0.8972E-3  -.2936E-3  0.1169E-3  -.4104E-3
  6.133     0.2011E-1  -.7433     0.7624     0.9553E-3  -.3396E-3  0.1351E-3  -.4747E-3
  6.279     0.2307E-1  -.7063     0.7283     0.1029E-2  -.3928E-3  0.1562E-3  -.5490E-3
  6.425     0.2650E-1  -.6777     0.7030     0.1122E-2  -.4542E-3  0.1805E-3  -.6347E-3
  6.571     0.3048E-1  -.6581     0.6873     0.1235E-2  -.5250E-3  0.2086E-3  -.7336E-3
  6.717     0.3508E-1  -.6482     0.6820     0.1372E-2  -.6067E-3  0.2410E-3  -.8477E-3
  6.863     0.4041E-1  -.6488     0.6876     0.1536E-2  -.7008E-3  0.2784E-3  -.9792E-3
  7.009     0.4655E-1  -.6603     0.7051     0.1730E-2  -.8093E-3  0.3214E-3  -.1131E-2
  7.155     0.5364E-1  -.6836     0.7353     0.1959E-2  -.9343E-3  0.3710E-3  -.1305E-2
  7.302     0.6181E-1  -.7194     0.7790     0.2226E-2  -.1078E-2  0.4281E-3  -.1506E-2
  7.448     0.7121E-1  -.7688     0.8374     0.2537E-2  -.1243E-2  0.4937E-3  -.1737E-2
  7.594     0.8202E-1  -.8327     0.9119     0.2899E-2  -.1433E-2  0.5690E-3  -.2002E-2
  7.740     0.9443E-1  -.9126      1.004     0.3316E-2  -.1651E-2  0.6555E-3  -.2307E-2
  7.886     0.1087     -1.010      1.115     0.3797E-2  -.1901E-2  0.7545E-3  -.2655E-2
  8.032     0.1249     -1.126      1.247     0.4350E-2  -.2186E-2  0.8679E-3  -.3054E-2
  8.178     0.1435     -1.263      1.402     0.4984E-2  -.2512E-2  0.9973E-3  -.3510E-2
  8.324     0.1647     -1.423      1.582     0.5708E-2  -.2884E-2  0.1145E-2  -.4029E-2
  8.470     0.1888     -1.608      1.791     0.6533E-2  -.3306E-2  0.1312E-2  -.4619E-2
  8.616     0.2162     -1.821      2.030     0.7469E-2  -.3785E-2  0.1503E-2  -.5288E-2
  8.762     0.2470     -2.065      2.303     0.8529E-2  -.4327E-2  0.1717E-2  -.6044E-2
  8.908     0.2818     -2.340      2.613     0.9723E-2  -.4936E-2  0.1959E-2  -.6896E-2
  9.054     0.3208     -2.652      2.962     0.1106E-1  -.5620E-2  0.2231E-2  -.7851E-2
  9.200     0.3644     -3.001      3.353     0.1256E-1  -.6383E-2  0.2534E-2  -.8916E-2
  9.346     0.4127     -3.389      3.788     0.1422E-1  -.7229E-2  0.2870E-2  -.1010E-1
  9.492     0.4660     -3.819      4.269     0.1605E-1  -.8163E-2  0.3240E-2  -.1140E-1
  9.638     0.5244     -4.291      4.797     0.1806E-1  -.9185E-2  0.3646E-2  -.1283E-1
  9.784     0.5877     -4.803      5.371     0.2024E-1  -.1030E-1  0.4087E-2  -.1438E-1
  9.930     0.6558     -5.355      5.988     0.2258E-1  -.1149E-1  0.4560E-2  -.1605E-1
  10.08     0.7282     -5.942      6.645     0.2508E-1  -.1276E-1  0.5064E-2  -.1782E-1
  10.22     0.8042     -6.559      7.335     0.2769E-1  -.1409E-1  0.5592E-2  -.1968E-1
  10.37     0.8828     -7.197      8.049     0.3040E-1  -.1547E-1  0.6139E-2  -.2160E-1
  10.51     0.9628     -7.846      8.776     0.3315E-1  -.1687E-1  0.6695E-2  -.2356E-1
  10.66      1.042     -8.493      9.499     0.3589E-1  -.1826E-1  0.7249E-2  -.2551E-1
  10.81      1.120     -9.122      10.20     0.3855E-1  -.1962E-1  0.7787E-2  -.2740E-1
  10.95      1.193     -9.717      10.87     0.4107E-1  -.2090E-1  0.8296E-2  -.2920E-1
  11.10      1.260     -10.26      11.47     0.4337E-1  -.2207E-1  0.8759E-2  -.3083E-1
  11.24      1.318     -10.73      12.00     0.4536E-1  -.2308E-1  0.9162E-2  -.3224E-1
  11.39      1.365     -11.11      12.43     0.4698E-1  -.2391E-1  0.9489E-2  -.3340E-1
  11.54      1.399     -11.39      12.74     0.4816E-1  -.2451E-1  0.9728E-2  -.3424E-1
  11.68      1.419     -11.56      12.93     0.4886E-1  -.2486E-1  0.9870E-2  -.3473E-1
  11.83      1.425     -11.60      12.98     0.4905E-1  -.2496E-1  0.9908E-2  -.3487E-1
  11.97      1.415     -11.52      12.89     0.4871E-1  -.2479E-1  0.9840E-2  -.3463E-1
  12.12      1.391     -11.32      12.66     0.4787E-1  -.2436E-1  0.9670E-2  -.3403E-1
  12.27      1.352     -11.01      12.32     0.4656E-1  -.2369E-1  0.9405E-2  -.3310E-1
  12.41      1.302     -10.60      11.86     0.4483E-1  -.2281E-1  0.9055E-2  -.3187E-1
  12.56      1.242     -10.11      11.31     0.4274E-1  -.2175E-1  0.8634E-2  -.3038E-1
  12.70      1.173     -9.547      10.68     0.4038E-1  -.2055E-1  0.8156E-2  -.2870E-1
  12.85      1.098     -8.940      10.00     0.3781E-1  -.1924E-1  0.7637E-2  -.2688E-1
  13.00      1.020     -8.303      9.288     0.3511E-1  -.1787E-1  0.7093E-2  -.2496E-1
  13.14     0.9401     -7.652      8.560     0.3236E-1  -.1647E-1  0.6537E-2  -.2301E-1
  13.29     0.8604     -7.003      7.834     0.2962E-1  -.1507E-1  0.5983E-2  -.2105E-1
  13.43     0.7824     -6.368      7.124     0.2693E-1  -.1371E-1  0.5440E-2  -.1915E-1
  13.58     0.7073     -5.757      6.440     0.2435E-1  -.1239E-1  0.4918E-2  -.1731E-1
  13.73     0.6360     -5.177      5.791     0.2190E-1  -.1114E-1  0.4423E-2  -.1556E-1
  13.87     0.5692     -4.633      5.183     0.1960E-1  -.9972E-2  0.3958E-2  -.1393E-1
  14.02     0.5073     -4.129      4.619     0.1746E-1  -.8887E-2  0.3528E-2  -.1241E-1
  14.16     0.4504     -3.666      4.101     0.1550E-1  -.7890E-2  0.3132E-2  -.1102E-1
  14.31     0.3985     -3.244      3.628     0.1372E-1  -.6981E-2  0.2771E-2  -.9752E-2
  14.46     0.3515     -2.861      3.201     0.1210E-1  -.6158E-2  0.2444E-2  -.8603E-2
  14.60     0.3093     -2.518      2.816     0.1065E-1  -.5418E-2  0.2151E-2  -.7569E-2
  14.75     0.2715     -2.210      2.472     0.9346E-2  -.4756E-2  0.1888E-2  -.6644E-2
  14.90     0.2378     -1.936      2.166     0.8188E-2  -.4167E-2  0.1654E-2  -.5820E-2
  15.04     0.2080     -1.693      1.894     0.7160E-2  -.3644E-2  0.1446E-2  -.5090E-2
  15.19     0.1816     -1.478      1.653     0.6251E-2  -.3181E-2  0.1263E-2  -.4444E-2
  15.33     0.1583     -1.289      1.442     0.5451E-2  -.2774E-2  0.1101E-2  -.3875E-2
  15.48     0.1379     -1.122      1.256     0.4747E-2  -.2416E-2  0.9589E-3  -.3374E-2
  15.63     0.1200     -.9765      1.092     0.4130E-2  -.2102E-2  0.8342E-3  -.2936E-2
  15.77     0.1043     -.8488     0.9495     0.3590E-2  -.1827E-2  0.7251E-3  -.2552E-2
  15.92     0.9057E-1  -.7372     0.8246     0.3118E-2  -.1587E-2  0.6298E-3  -.2216E-2
  16.06     0.7861E-1  -.6398     0.7157     0.2706E-2  -.1377E-2  0.5466E-3  -.1924E-2
  16.21     0.6820E-1  -.5550     0.6209     0.2347E-2  -.1194E-2  0.4741E-3  -.1669E-2
  16.36     0.5913E-1  -.4812     0.5383     0.2035E-2  -.1036E-2  0.4111E-3  -.1447E-2
  16.50     0.5125E-1  -.4170     0.4665     0.1763E-2  -.8974E-3  0.3562E-3  -.1254E-2
  16.65     0.4440E-1  -.3612     0.4041     0.1527E-2  -.7774E-3  0.3086E-3  -.1086E-2
  16.79     0.3845E-1  -.3128     0.3500     0.1323E-2  -.6732E-3  0.2673E-3  -.9405E-3
  16.94     0.3330E-1  -.2708     0.3030     0.1145E-2  -.5828E-3  0.2314E-3  -.8142E-3
  17.09     0.2883E-1  -.2344     0.2622     0.9909E-3  -.5044E-3  0.2003E-3  -.7047E-3
  17.23     0.2495E-1  -.2028     0.2269     0.8574E-3  -.4365E-3  0.1733E-3  -.6098E-3
  17.38     0.2160E-1  -.1755     0.1964     0.7416E-3  -.3776E-3  0.1499E-3  -.5276E-3
  17.52     0.1870E-1  -.1518     0.1699     0.6414E-3  -.3267E-3  0.1297E-3  -.4564E-3
  17.67     0.1619E-1  -.1313     0.1470     0.5546E-3  -.2825E-3  0.1122E-3  -.3947E-3
  17.82     0.1402E-1  -.1136     0.1271     0.4794E-3  -.2443E-3  0.9705E-4  -.3414E-3
  17.96     0.1214E-1  -.9822E-1  0.1100     0.4143E-3  -.2113E-3  0.8394E-4  -.2952E-3
  18.11     0.1052E-1  -.8494E-1  0.9511E-1  0.3580E-3  -.1827E-3  0.7260E-4  -.2553E-3
  18.25     0.9122E-2  -.7346E-1  0.8227E-1  0.3092E-3  -.1579E-3  0.6279E-4  -.2207E-3
  18.40     0.7917E-2  -.6352E-1  0.7117E-1  0.2670E-3  -.1365E-3  0.5431E-4  -.1908E-3
  18.55     0.6880E-2  -.5494E-1  0.6159E-1  0.2304E-3  -.1180E-3  0.4699E-4  -.1650E-3
  18.69     0.5989E-2  -.4752E-1  0.5331E-1  0.1987E-3  -.1020E-3  0.4065E-4  -.1426E-3
  18.84     0.5224E-2  -.4110E-1  0.4616E-1  0.1712E-3  -.8815E-4  0.3519E-4  -.1233E-3
  18.98     0.4572E-2  -.3557E-1  0.3999E-1  0.1474E-3  -.7618E-4  0.3047E-4  -.1066E-3
  19.13     0.4016E-2  -.3078E-1  0.3467E-1  0.1267E-3  -.6583E-4  0.2639E-4  -.9223E-4
  19.28     0.3545E-2  -.2666E-1  0.3009E-1  0.1087E-3  -.5688E-4  0.2288E-4  -.7977E-4
  19.42     0.3151E-2  -.2310E-1  0.2615E-1  0.9301E-4  -.4915E-4  0.1986E-4  -.6900E-4
  19.57     0.2823E-2  -.2003E-1  0.2277E-1  0.7930E-4  -.4245E-4  0.1726E-4  -.5971E-4
  19.71     0.2556E-2  -.1739E-1  0.1987E-1  0.6727E-4  -.3667E-4  0.1502E-4  -.5169E-4
  19.86     0.2343E-2  -.1511E-1  0.1740E-1  0.5669E-4  -.3166E-4  0.1311E-4  -.4477E-4
  20.01     0.2180E-2  -.1317E-1  0.1530E-1  0.4731E-4  -.2733E-4  0.1148E-4  -.3881E-4
  20.15     0.2063E-2  -.1150E-1  0.1352E-1  0.3894E-4  -.2359E-4  0.1009E-4  -.3367E-4
  20.30     0.1990E-2  -.1008E-1  0.1204E-1  0.3140E-4  -.2034E-4  0.8913E-5  -.2926E-4
  20.44     0.1960E-2  -.8869E-2  0.1080E-1  0.2453E-4  -.1753E-4  0.7930E-5  -.2546E-4
  20.59     0.1972E-2  -.7850E-2  0.9804E-2  0.1818E-4  -.1510E-4  0.7116E-5  -.2221E-4
  20.74     0.2026E-2  -.7000E-2  0.9014E-2  0.1223E-4  -.1298E-4  0.6453E-5  -.1944E-4
  20.88     0.2123E-2  -.6298E-2  0.8415E-2  0.6530E-5  -.1115E-4  0.5928E-5  -.1708E-4
  21.03     0.2266E-2  -.5732E-2  0.7996E-2  0.9726E-6  -.9550E-5  0.5530E-5  -.1508E-4
  21.17     0.2457E-2  -.5287E-2  0.7748E-2  -.4564E-5  -.8156E-5  0.5250E-5  -.1341E-4
  21.32     0.2700E-2  -.4956E-2  0.7666E-2  -.1020E-4  -.6935E-5  0.5082E-5  -.1202E-4
  21.47     0.3001E-2  -.4730E-2  0.7746E-2  -.1605E-4  -.5863E-5  0.5023E-5  -.1089E-4
  21.61     0.3365E-2  -.4605E-2  0.7992E-2  -.2224E-4  -.4917E-5  0.5070E-5  -.9987E-5
  21.76     0.3802E-2  -.4578E-2  0.8409E-2  -.2890E-4  -.4075E-5  0.5226E-5  -.9301E-5
  21.90     0.4319E-2  -.4649E-2  0.9005E-2  -.3618E-4  -.3320E-5  0.5493E-5  -.8813E-5
  22.05     0.4929E-2  -.4819E-2  0.9792E-2  -.4423E-4  -.2636E-5  0.5877E-5  -.8514E-5
  22.20     0.5643E-2  -.5092E-2  0.1079E-1  -.5322E-4  -.2009E-5  0.6387E-5  -.8396E-5
  22.34     0.6477E-2  -.5473E-2  0.1201E-1  -.6335E-4  -.1425E-5  0.7032E-5  -.8457E-5
  22.49     0.7450E-2  -.5971E-2  0.1350E-1  -.7481E-4  -.8710E-6  0.7827E-5  -.8698E-5
  22.63     0.8580E-2  -.6596E-2  0.1526E-1  -.8787E-4  -.3360E-6  0.8788E-5  -.9124E-5
  22.78     0.9892E-2  -.7360E-2  0.1736E-1  -.1028E-3  0.1916E-6  0.9936E-5  -.9744E-5
  22.93     0.1141E-1  -.8281E-2  0.1981E-1  -.1199E-3  0.7229E-6  0.1129E-4  -.1057E-4
  23.07     0.1318E-1  -.9377E-2  0.2269E-1  -.1395E-3  0.1269E-5  0.1289E-4  -.1162E-4
  23.22     0.1522E-1  -.1067E-1  0.2605E-1  -.1621E-3  0.1842E-5  0.1476E-4  -.1292E-4
  23.36     0.1758E-1  -.1219E-1  0.2996E-1  -.1881E-3  0.2454E-5  0.1694E-4  -.1449E-4
  23.51     0.2032E-1  -.1397E-1  0.3450E-1  -.2181E-3  0.3116E-5  0.1948E-4  -.1637E-4
  23.66     0.2348E-1  -.1604E-1  0.3977E-1  -.2526E-3  0.3844E-5  0.2243E-4  -.1859E-4
  23.80     0.2713E-1  -.1844E-1  0.4586E-1  -.2924E-3  0.4653E-5  0.2585E-4  -.2119E-4
  23.95     0.3135E-1  -.2124E-1  0.5292E-1  -.3384E-3  0.5558E-5  0.2981E-4  -.2425E-4
  24.10     0.3622E-1  -.2447E-1  0.6108E-1  -.3914E-3  0.6578E-5  0.3438E-4  -.2781E-4
  24.24     0.4184E-1  -.2821E-1  0.7050E-1  -.4524E-3  0.7735E-5  0.3967E-4  -.3194E-4
  24.39     0.4832E-1  -.3253E-1  0.8138E-1  -.5229E-3  0.9050E-5  0.4578E-4  -.3673E-4
  24.53     0.5580E-1  -.3752E-1  0.9393E-1  -.6040E-3  0.1055E-4  0.5283E-4  -.4228E-4
  24.68     0.6441E-1  -.4328E-1  0.1084     -.6975E-3  0.1227E-4  0.6096E-4  -.4869E-4
  24.83     0.7433E-1  -.4991E-1  0.1250     -.8050E-3  0.1423E-4  0.7032E-4  -.5609E-4
  24.97     0.8574E-1  -.5754E-1  0.1442     -.9288E-3  0.1648E-4  0.8109E-4  -.6461E-4
  25.12     0.9884E-1  -.6632E-1  0.1662     -.1071E-2  0.1906E-4  0.9347E-4  -.7441E-4
  25.26     0.1139     -.7639E-1  0.1915     -.1234E-2  0.2201E-4  0.1077E-3  -.8567E-4
  25.41     0.1311     -.8795E-1  0.2205     -.1421E-2  0.2538E-4  0.1240E-3  -.9860E-4
  25.56     0.1509     -.1012     0.2537     -.1635E-2  0.2924E-4  0.1426E-3  -.1134E-3
  25.70     0.1735     -.1163     0.2917     -.1880E-2  0.3364E-4  0.1640E-3  -.1303E-3
  25.85     0.1992     -.1336     0.3349     -.2159E-2  0.3867E-4  0.1883E-3  -.1496E-3
  25.99     0.2285     -.1532     0.3842     -.2477E-2  0.4438E-4  0.2160E-3  -.1716E-3
  26.14     0.2618     -.1755     0.4402     -.2838E-2  0.5086E-4  0.2474E-3  -.1966E-3
  26.29     0.2995     -.2007     0.5035     -.3246E-2  0.5819E-4  0.2830E-3  -.2248E-3
  26.43     0.3420     -.2292     0.5749     -.3706E-2  0.6646E-4  0.3232E-3  -.2567E-3
  26.58     0.3897     -.2612     0.6551     -.4224E-2  0.7575E-4  0.3683E-3  -.2925E-3
  26.72     0.4431     -.2970     0.7449     -.4802E-2  0.8614E-4  0.4187E-3  -.3326E-3
  26.87     0.5025     -.3368     0.8448     -.5446E-2  0.9770E-4  0.4749E-3  -.3772E-3
  27.02     0.5682     -.3808     0.9552     -.6159E-2  0.1105E-3  0.5370E-3  -.4265E-3
  27.16     0.6404     -.4292      1.077     -.6941E-2  0.1245E-3  0.6052E-3  -.4807E-3
  27.31     0.7191     -.4819      1.209     -.7794E-2  0.1398E-3  0.6795E-3  -.5397E-3
  27.45     0.8041     -.5389      1.352     -.8715E-2  0.1564E-3  0.7598E-3  -.6035E-3
  27.60     0.8949     -.5997      1.504     -.9699E-2  0.1740E-3  0.8457E-3  -.6716E-3
  27.75     0.9908     -.6640      1.666     -.1074E-1  0.1927E-3  0.9363E-3  -.7436E-3
  27.89      1.091     -.7309      1.833     -.1182E-1  0.2121E-3  0.1031E-2  -.8186E-3
  28.04      1.193     -.7995      2.005     -.1293E-1  0.2320E-3  0.1127E-2  -.8954E-3
  28.18      1.296     -.8685      2.178     -.1405E-1  0.2520E-3  0.1225E-2  -.9726E-3
  28.33      1.397     -.9364      2.349     -.1514E-1  0.2717E-3  0.1320E-2  -.1049E-2
  28.48      1.494     -1.001      2.512     -.1619E-1  0.2906E-3  0.1412E-2  -.1121E-2
  28.62      1.584     -1.062      2.663     -.1717E-1  0.3081E-3  0.1497E-2  -.1189E-2
  28.77      1.664     -1.115      2.797     -.1803E-1  0.3236E-3  0.1572E-2  -.1249E-2
  28.91      1.731     -1.160      2.910     -.1876E-1  0.3367E-3  0.1636E-2  -.1299E-2
  29.06      1.783     -1.195      2.997     -.1932E-1  0.3467E-3  0.1685E-2  -.1338E-2
  29.21      1.817     -1.218      3.055     -.1970E-1  0.3534E-3  0.1717E-2  -.1364E-2
  29.35      1.833     -1.228      3.081     -.1987E-1  0.3565E-3  0.1732E-2  -.1376E-2
  29.50      1.829     -1.226      3.075     -.1983E-1  0.3557E-3  0.1729E-2  -.1373E-2
  29.64      1.806     -1.210      3.036     -.1958E-1  0.3512E-3  0.1707E-2  -.1355E-2
  29.79      1.765     -1.183      2.966     -.1913E-1  0.3432E-3  0.1668E-2  -.1324E-2
  29.94      1.707     -1.144      2.869     -.1850E-1  0.3319E-3  0.1613E-2  -.1281E-2
  30.08      1.634     -1.095      2.747     -.1771E-1  0.3178E-3  0.1544E-2  -.1227E-2
  30.23      1.550     -1.039      2.606     -.1680E-1  0.3015E-3  0.1465E-2  -.1163E-2
  30.37      1.457     -.9766      2.449     -.1579E-1  0.2834E-3  0.1377E-2  -.1094E-2
  30.52      1.358     -.9102      2.283     -.1472E-1  0.2641E-3  0.1283E-2  -.1019E-2
  30.67      1.256     -.8417      2.111     -.1361E-1  0.2443E-3  0.1187E-2  -.9426E-3
  30.81      1.153     -.7727      1.938     -.1250E-1  0.2242E-3  0.1090E-2  -.8653E-3
  30.96      1.051     -.7047      1.767     -.1140E-1  0.2045E-3  0.9936E-3  -.7891E-3
  31.10     0.9529     -.6387      1.602     -.1033E-1  0.1853E-3  0.9005E-3  -.7152E-3
  31.25     0.8589     -.5756      1.444     -.9309E-2  0.1670E-3  0.8117E-3  -.6446E-3
  31.40     0.7703     -.5162      1.295     -.8349E-2  0.1498E-3  0.7279E-3  -.5781E-3
  31.54     0.6877     -.4609      1.156     -.7454E-2  0.1337E-3  0.6499E-3  -.5162E-3
  31.69     0.6116     -.4099      1.028     -.6628E-2  0.1189E-3  0.5779E-3  -.4590E-3
  31.83     0.5419     -.3632     0.9110     -.5873E-2  0.1054E-3  0.5121E-3  -.4067E-3
  31.98     0.4787     -.3208     0.8047     -.5188E-2  0.9309E-4  0.4523E-3  -.3593E-3
  32.13     0.4216     -.2826     0.7088     -.4570E-2  0.8200E-4  0.3984E-3  -.3164E-3
  32.27     0.3705     -.2483     0.6228     -.4016E-2  0.7205E-4  0.3501E-3  -.2781E-3
  32.42     0.3248     -.2177     0.5461     -.3521E-2  0.6318E-4  0.3070E-3  -.2438E-3
  32.56     0.2843     -.1905     0.4779     -.3081E-2  0.5529E-4  0.2686E-3  -.2134E-3
  32.71     0.2484     -.1665     0.4175     -.2692E-2  0.4830E-4  0.2347E-3  -.1864E-3
  32.86     0.2167     -.1452     0.3643     -.2349E-2  0.4214E-4  0.2048E-3  -.1626E-3
  33.00     0.1888     -.1265     0.3174     -.2046E-2  0.3672E-4  0.1784E-3  -.1417E-3
  33.15     0.1643     -.1101     0.2763     -.1781E-2  0.3196E-4  0.1553E-3  -.1233E-3
  33.29     0.1429     -.9577E-1  0.2402     -.1549E-2  0.2779E-4  0.1350E-3  -.1072E-3
  33.44     0.1242     -.8321E-1  0.2087     -.1346E-2  0.2414E-4  0.1173E-3  -.9318E-4
  33.59     0.1078     -.7224E-1  0.1812     -.1168E-2  0.2096E-4  0.1019E-3  -.8090E-4
  33.73     0.9352E-1  -.6268E-1  0.1572     -.1014E-2  0.1819E-4  0.8838E-4  -.7019E-4
  33.88     0.8110E-1  -.5435E-1  0.1363     -.8790E-3  0.1577E-4  0.7664E-4  -.6087E-4
  34.03     0.7029E-1  -.4711E-1  0.1182     -.7619E-3  0.1367E-4  0.6643E-4  -.5276E-4
  34.17     0.6090E-1  -.4082E-1  0.1024     -.6601E-3  0.1184E-4  0.5755E-4  -.4571E-4
  34.32     0.5275E-1  -.3535E-1  0.8867E-1  -.5717E-3  0.1026E-4  0.4985E-4  -.3959E-4
  34.46     0.4567E-1  -.3061E-1  0.7677E-1  -.4950E-3  0.8882E-5  0.4316E-4  -.3428E-4
  34.61     0.3953E-1  -.2649E-1  0.6646E-1  -.4285E-3  0.7688E-5  0.3736E-4  -.2967E-4
  34.76     0.3421E-1  -.2293E-1  0.5751E-1  -.3708E-3  0.6653E-5  0.3233E-4  -.2568E-4
  34.90     0.2960E-1  -.1984E-1  0.4976E-1  -.3208E-3  0.5757E-5  0.2797E-4  -.2222E-4
  35.05     0.2561E-1  -.1716E-1  0.4305E-1  -.2775E-3  0.4980E-5  0.2420E-4  -.1922E-4
  35.19     0.2215E-1  -.1484E-1  0.3723E-1  -.2401E-3  0.4308E-5  0.2093E-4  -.1662E-4
  35.34     0.1916E-1  -.1284E-1  0.3220E-1  -.2076E-3  0.3725E-5  0.1810E-4  -.1438E-4
  35.49     0.1656E-1  -.1110E-1  0.2785E-1  -.1795E-3  0.3222E-5  0.1565E-4  -.1243E-4
  35.63     0.1432E-1  -.9599E-2  0.2408E-1  -.1552E-3  0.2786E-5  0.1354E-4  -.1075E-4
  35.78     0.1238E-1  -.8299E-2  0.2082E-1  -.1342E-3  0.2408E-5  0.1170E-4  -.9294E-5
  35.92     0.1071E-1  -.7175E-2  0.1800E-1  -.1160E-3  0.2082E-5  0.1012E-4  -.8035E-5
  36.07     0.9255E-2  -.6203E-2  0.1556E-1  -.1003E-3  0.1800E-5  0.8746E-5  -.6946E-5
  36.22     0.8000E-2  -.5362E-2  0.1345E-1  -.8671E-4  0.1556E-5  0.7560E-5  -.6004E-5
  36.36     0.6915E-2  -.4635E-2  0.1162E-1  -.7495E-4  0.1345E-5  0.6535E-5  -.5190E-5
  36.51     0.5977E-2  -.4006E-2  0.1005E-1  -.6478E-4  0.1162E-5  0.5649E-5  -.4486E-5
  36.65     0.5166E-2  -.3462E-2  0.8685E-2  -.5599E-4  0.1005E-5  0.4882E-5  -.3877E-5
  36.80     0.4465E-2  -.2993E-2  0.7506E-2  -.4840E-4  0.8684E-6  0.4220E-5  -.3351E-5
  36.95     0.3859E-2  -.2586E-2  0.6487E-2  -.4183E-4  0.7505E-6  0.3647E-5  -.2896E-5
  37.09     0.3335E-2  -.2235E-2  0.5607E-2  -.3615E-4  0.6487E-6  0.3152E-5  -.2503E-5
  37.24     0.2882E-2  -.1932E-2  0.4846E-2  -.3124E-4  0.5606E-6  0.2724E-5  -.2163E-5
  37.38     0.2491E-2  -.1670E-2  0.4188E-2  -.2700E-4  0.4845E-6  0.2354E-5  -.1870E-5
  37.53     0.2153E-2  -.1443E-2  0.3619E-2  -.2333E-4  0.4187E-6  0.2034E-5  -.1616E-5
  37.68     0.1860E-2  -.1247E-2  0.3128E-2  -.2016E-4  0.3618E-6  0.1758E-5  -.1396E-5
  37.82     0.1608E-2  -.1078E-2  0.2703E-2  -.1743E-4  0.3127E-6  0.1519E-5  -.1207E-5
  37.97     0.1389E-2  -.9312E-3  0.2336E-2  -.1506E-4  0.2702E-6  0.1313E-5  -.1043E-5
  38.11     0.1201E-2  -.8047E-3  0.2018E-2  -.1301E-4  0.2335E-6  0.1135E-5  -.9012E-6
  38.26     0.1038E-2  -.6954E-3  0.1744E-2  -.1125E-4  0.2018E-6  0.9806E-6  -.7788E-6
  38.41     0.8967E-3  -.6010E-3  0.1507E-2  -.9719E-5  0.1744E-6  0.8474E-6  -.6730E-6
  38.55     0.7749E-3  -.5193E-3  0.1303E-2  -.8399E-5  0.1507E-6  0.7323E-6  -.5816E-6
  38.70     0.6696E-3  -.4488E-3  0.1126E-2  -.7258E-5  0.1302E-6  0.6328E-6  -.5025E-6
  38.84     0.5787E-3  -.3878E-3  0.9727E-3  -.6272E-5  0.1126E-6  0.5468E-6  -.4343E-6
  38.99     0.5000E-3  -.3351E-3  0.8406E-3  -.5420E-5  0.9727E-7  0.4725E-6  -.3753E-6
  39.14     0.4321E-3  -.2896E-3  0.7264E-3  -.4683E-5  0.8406E-7  0.4083E-6  -.3243E-6
  39.28     0.3734E-3  -.2503E-3  0.6277E-3  -.4047E-5  0.7265E-7  0.3529E-6  -.2802E-6
  39.43     0.3227E-3  -.2163E-3  0.5424E-3  -.3497E-5  0.6278E-7  0.3049E-6  -.2421E-6
  39.57     0.2788E-3  -.1869E-3  0.4687E-3  -.3022E-5  0.5426E-7  0.2635E-6  -.2092E-6
  39.72     0.2410E-3  -.1615E-3  0.4051E-3  -.2612E-5  0.4690E-7  0.2277E-6  -.1808E-6
  39.87     0.2082E-3  -.1395E-3  0.3500E-3  -.2257E-5  0.4054E-7  0.1968E-6  -.1562E-6
  40.01     0.1799E-3  -.1206E-3  0.3025E-3  -.1950E-5  0.3505E-7  0.1700E-6  -.1350E-6
  40.16     0.1555E-3  -.1042E-3  0.2614E-3  -.1685E-5  0.3030E-7  0.1469E-6  -.1166E-6
  40.30     0.1344E-3  -.9005E-4  0.2259E-3  -.1456E-5  0.2620E-7  0.1270E-6  -.1008E-6
  40.45     0.1161E-3  -.7781E-4  0.1952E-3  -.1259E-5  0.2266E-7  0.1097E-6  -.8704E-7
  40.60     0.1003E-3  -.6724E-4  0.1687E-3  -.1088E-5  0.1961E-7  0.9479E-7  -.7519E-7
  40.74     0.8671E-4  -.5810E-4  0.1457E-3  -.9398E-6  0.1697E-7  0.8191E-7  -.6494E-7
  40.89     0.7493E-4  -.5021E-4  0.1259E-3  -.8122E-6  0.1470E-7  0.7077E-7  -.5608E-7
  41.03     0.6475E-4  -.4338E-4  0.1088E-3  -.7019E-6  0.1274E-7  0.6115E-7  -.4841E-7
  41.18     0.5596E-4  -.3749E-4  0.9405E-4  -.6066E-6  0.1105E-7  0.5283E-7  -.4178E-7
  41.33     0.4836E-4  -.3239E-4  0.8128E-4  -.5242E-6  0.9600E-8  0.4564E-7  -.3604E-7
  41.47     0.4179E-4  -.2799E-4  0.7024E-4  -.4531E-6  0.8354E-8  0.3943E-7  -.3108E-7
  41.62     0.3612E-4  -.2419E-4  0.6070E-4  -.3916E-6  0.7286E-8  0.3406E-7  -.2677E-7
  41.76     0.3122E-4  -.2090E-4  0.5245E-4  -.3385E-6  0.6374E-8  0.2942E-7  -.2304E-7
  41.91     0.2698E-4  -.1806E-4  0.4533E-4  -.2926E-6  0.5598E-8  0.2540E-7  -.1980E-7
  42.06     0.2333E-4  -.1560E-4  0.3918E-4  -.2530E-6  0.4941E-8  0.2193E-7  -.1699E-7
  42.20     0.2017E-4  -.1348E-4  0.3386E-4  -.2188E-6  0.4391E-8  0.1893E-7  -.1454E-7
  42.35     0.1744E-4  -.1164E-4  0.2927E-4  -.1892E-6  0.3934E-8  0.1633E-7  -.1239E-7
  42.49     0.1508E-4  -.1005E-4  0.2530E-4  -.1637E-6  0.3561E-8  0.1408E-7  -.1052E-7
  42.64     0.1305E-4  -.8682E-5  0.2187E-4  -.1417E-6  0.3264E-8  0.1213E-7  -.8863E-8
  42.79     0.1129E-4  -.7496E-5  0.1891E-4  -.1228E-6  0.3036E-8  0.1044E-7  -.7400E-8
  42.93     0.9777E-5  -.6470E-5  0.1635E-4  -.1064E-6  0.2874E-8  0.8968E-8  -.6094E-8
  43.08     0.8471E-5  -.5582E-5  0.1415E-4  -.9232E-7  0.2773E-8  0.7692E-8  -.4919E-8
  43.23     0.7347E-5  -.4813E-5  0.1224E-4  -.8021E-7  0.2731E-8  0.6580E-8  -.3849E-8
  43.37     0.6379E-5  -.4147E-5  0.1060E-4  -.6982E-7  0.2748E-8  0.5609E-8  -.2861E-8
  43.52     0.5548E-5  -.3570E-5  0.9178E-5  -.6091E-7  0.2823E-8  0.4757E-8  -.1934E-8
  43.66     0.4835E-5  -.3069E-5  0.7957E-5  -.5331E-7  0.2959E-8  0.4007E-8  -.1048E-8
  43.8      0.423E-05  -.263E-05  0.691E-05  -.468E-07  0.316E-08  0.334E-08  -.185E-09
  44.0      0.371E-05  -.225E-05  0.600E-05  -.414E-07  0.342E-08  0.275E-08  0.674E-09
  44.10     0.3266E-5  -.1923E-5  0.5226E-5  -.3680E-7  0.3764E-8  0.2215E-8  0.1548E-8
  44.25     0.2896E-5  -.1633E-5  0.4562E-5  -.3301E-7  0.4183E-8  0.1729E-8  0.2455E-8
  44.39     0.2587E-5  -.1378E-5  0.3995E-5  -.2992E-7  0.4693E-8  0.1279E-8  0.3414E-8
  44.5      0.233E-05  -.115E-05  0.351E-05  -.275E-07  0.530E-08  0.856E-09  0.445E-08
  44.7      0.213E-05  -.951E-06  0.311E-05  -.256E-07  0.602E-08  0.452E-09  0.557E-08
  44.8      0.197E-05  -.770E-06  0.277E-05  -.243E-07  0.688E-08  0.569E-10  0.682E-08
  45.0      0.186E-05  -.606E-06  0.249E-05  -.235E-07  0.787E-08  -.337E-09  0.821E-08
  45.1      0.178E-05  -.455E-06  0.226E-05  -.232E-07  0.904E-08  -.737E-09  0.978E-08
  45.27     0.1743E-5  -.3131E-6  0.2080E-5  -.2341E-7  0.1040E-7  -.1154E-8  0.1155E-7
  45.42     0.1743E-5  -.1782E-6  0.1945E-5  -.2411E-7  0.1198E-7  -.1595E-8  0.1358E-7
  45.56     0.1779E-5  -.4707E-7  0.1852E-5  -.2533E-7  0.1382E-7  -.2070E-8  0.1589E-7
  45.71     0.1854E-5  0.8305E-7  0.1798E-5  -.2709E-7  0.1595E-7  -.2589E-8  0.1854E-7
  45.85     0.1968E-5  0.2150E-6  0.1783E-5  -.2943E-7  0.1843E-7  -.3164E-8  0.2159E-7
  46.00     0.2124E-5  0.3514E-6  0.1805E-5  -.3239E-7  0.2130E-7  -.3806E-8  0.2510E-7
  46.15     0.2326E-5  0.4954E-6  0.1866E-5  -.3605E-7  0.2462E-7  -.4530E-8  0.2915E-7
  46.29     0.2577E-5  0.6500E-6  0.1968E-5  -.4048E-7  0.2847E-7  -.5350E-8  0.3382E-7
  46.44     0.2883E-5  0.8185E-6  0.2111E-5  -.4577E-7  0.3292E-7  -.6285E-8  0.3921E-7
  46.58     0.3251E-5  0.1004E-5  0.2299E-5  -.5205E-7  0.3808E-7  -.7354E-8  0.4544E-7
  46.73     0.3689E-5  0.1212E-5  0.2536E-5  -.5943E-7  0.4406E-7  -.8580E-8  0.5264E-7
  46.88     0.4205E-5  0.1445E-5  0.2828E-5  -.6808E-7  0.5097E-7  -.9989E-8  0.6096E-7
  47.02     0.4811E-5  0.1709E-5  0.3180E-5  -.7819E-7  0.5898E-7  -.1161E-7  0.7059E-7
  47.17     0.5520E-5  0.2010E-5  0.3600E-5  -.8997E-7  0.6824E-7  -.1348E-7  0.8172E-7
  47.31     0.6347E-5  0.2354E-5  0.4097E-5  -.1037E-6  0.7896E-7  -.1564E-7  0.9460E-7
  47.46     0.7309E-5  0.2748E-5  0.4681E-5  -.1196E-6  0.9137E-7  -.1813E-7  0.1095E-6
  47.61     0.8427E-5  0.3200E-5  0.5365E-5  -.1380E-6  0.1057E-6  -.2101E-7  0.1267E-6
  47.75     0.9726E-5  0.3721E-5  0.6164E-5  -.1595E-6  0.1223E-6  -.2434E-7  0.1467E-6
  47.90     0.1123E-4  0.4322E-5  0.7095E-5  -.1843E-6  0.1416E-6  -.2819E-7  0.1698E-6
  48.04     0.1298E-4  0.5014E-5  0.8177E-5  -.2131E-6  0.1638E-6  -.3264E-7  0.1965E-6
  48.19     0.1500E-4  0.5814E-5  0.9434E-5  -.2464E-6  0.1896E-6  -.3779E-7  0.2274E-6
  48.34     0.1735E-4  0.6738E-5  0.1089E-4  -.2849E-6  0.2194E-6  -.4375E-7  0.2632E-6
  48.48     0.2006E-4  0.7806E-5  0.1258E-4  -.3296E-6  0.2539E-6  -.5064E-7  0.3045E-6
  48.63     0.2320E-4  0.9041E-5  0.1454E-4  -.3813E-6  0.2938E-6  -.5861E-7  0.3524E-6
  48.77     0.2684E-4  0.1047E-4  0.1681E-4  -.4412E-6  0.3400E-6  -.6784E-7  0.4078E-6
  48.92     0.3105E-4  0.1212E-4  0.1944E-4  -.5104E-6  0.3935E-6  -.7851E-7  0.4720E-6
  49.07     0.3593E-4  0.1403E-4  0.2249E-4  -.5906E-6  0.4553E-6  -.9086E-7  0.5462E-6
  49.21     0.4157E-4  0.1624E-4  0.2601E-4  -.6834E-6  0.5269E-6  -.1052E-6  0.6321E-6
  49.36     0.4810E-4  0.1880E-4  0.3010E-4  -.7908E-6  0.6098E-6  -.1217E-6  0.7315E-6
  49.50     0.5566E-4  0.2176E-4  0.3482E-4  -.9151E-6  0.7056E-6  -.1408E-6  0.8465E-6
  49.65     0.6441E-4  0.2518E-4  0.4029E-4  -.1059E-5  0.8166E-6  -.1630E-6  0.9796E-6
  49.80     0.7453E-4  0.2914E-4  0.4662E-4  -.1225E-5  0.9450E-6  -.1886E-6  0.1134E-5
  49.94     0.8625E-4  0.3373E-4  0.5394E-4  -.1418E-5  0.1094E-5  -.2183E-6  0.1312E-5
  50.09     0.9981E-4  0.3903E-4  0.6242E-4  -.1641E-5  0.1266E-5  -.2526E-6  0.1518E-5
  50.23     0.1155E-3  0.4517E-4  0.7223E-4  -.1899E-5  0.1464E-5  -.2923E-6  0.1757E-5
  50.38     0.1337E-3  0.5227E-4  0.8358E-4  -.2197E-5  0.1695E-5  -.3383E-6  0.2033E-5
  50.53     0.1547E-3  0.6049E-4  0.9672E-4  -.2543E-5  0.1961E-5  -.3915E-6  0.2353E-5
  50.67     0.1790E-3  0.7001E-4  0.1119E-3  -.2943E-5  0.2270E-5  -.4530E-6  0.2723E-5
  50.82     0.2071E-3  0.8101E-4  0.1295E-3  -.3405E-5  0.2626E-5  -.5242E-6  0.3151E-5
  50.96     0.2397E-3  0.9375E-4  0.1499E-3  -.3941E-5  0.3039E-5  -.6067E-6  0.3646E-5
  51.11     0.2774E-3  0.1085E-3  0.1734E-3  -.4560E-5  0.3517E-5  -.7020E-6  0.4219E-5
  51.26     0.3210E-3  0.1256E-3  0.2007E-3  -.5277E-5  0.4070E-5  -.8124E-6  0.4883E-5
  51.40     0.3715E-3  0.1453E-3  0.2323E-3  -.6107E-5  0.4710E-5  -.9402E-6  0.5650E-5
  51.55     0.4299E-3  0.1681E-3  0.2688E-3  -.7067E-5  0.5451E-5  -.1088E-5  0.6539E-5
  51.69     0.4975E-3  0.1946E-3  0.3111E-3  -.8179E-5  0.6308E-5  -.1259E-5  0.7567E-5
  51.84     0.5757E-3  0.2252E-3  0.3600E-3  -.9465E-5  0.7300E-5  -.1457E-5  0.8757E-5
  51.99     0.6662E-3  0.2606E-3  0.4165E-3  -.1095E-4  0.8447E-5  -.1686E-5  0.1013E-4
  52.13     0.7709E-3  0.3015E-3  0.4820E-3  -.1267E-4  0.9776E-5  -.1951E-5  0.1173E-4
  52.28     0.8921E-3  0.3490E-3  0.5578E-3  -.1467E-4  0.1131E-4  -.2258E-5  0.1357E-4
  52.42     0.1032E-2  0.4038E-3  0.6455E-3  -.1697E-4  0.1309E-4  -.2613E-5  0.1570E-4
  52.57     0.1195E-2  0.4673E-3  0.7470E-3  -.1964E-4  0.1515E-4  -.3024E-5  0.1817E-4
  52.72     0.1383E-2  0.5408E-3  0.8645E-3  -.2273E-4  0.1753E-4  -.3499E-5  0.2103E-4
  52.86     0.1600E-2  0.6258E-3  0.1000E-2  -.2630E-4  0.2029E-4  -.4049E-5  0.2434E-4
  53.01     0.1851E-2  0.7242E-3  0.1158E-2  -.3044E-4  0.2348E-4  -.4686E-5  0.2816E-4
  53.16     0.2142E-2  0.8381E-3  0.1340E-2  -.3522E-4  0.2717E-4  -.5423E-5  0.3259E-4
  53.30     0.2479E-2  0.9698E-3  0.1550E-2  -.4076E-4  0.3144E-4  -.6275E-5  0.3772E-4
  53.45     0.2869E-2  0.1122E-2  0.1794E-2  -.4717E-4  0.3639E-4  -.7261E-5  0.4365E-4
  53.59     0.3320E-2  0.1299E-2  0.2076E-2  -.5458E-4  0.4211E-4  -.8403E-5  0.5051E-4
  53.74     0.3842E-2  0.1503E-2  0.2402E-2  -.6316E-4  0.4873E-4  -.9724E-5  0.5845E-4
  53.89     0.4446E-2  0.1739E-2  0.2780E-2  -.7309E-4  0.5639E-4  -.1125E-4  0.6764E-4
  54.03     0.5145E-2  0.2013E-2  0.3217E-2  -.8458E-4  0.6525E-4  -.1302E-4  0.7827E-4
  54.18     0.5953E-2  0.2329E-2  0.3722E-2  -.9787E-4  0.7551E-4  -.1507E-4  0.9058E-4
  54.32     0.6889E-2  0.2695E-2  0.4307E-2  -.1132E-3  0.8738E-4  -.1744E-4  0.1048E-3
  54.47     0.7972E-2  0.3119E-2  0.4984E-2  -.1310E-3  0.1011E-3  -.2018E-4  0.1213E-3
  54.62     0.9225E-2  0.3609E-2  0.5767E-2  -.1516E-3  0.1170E-3  -.2335E-4  0.1404E-3
  54.76     0.1067E-1  0.4177E-2  0.6673E-2  -.1755E-3  0.1354E-3  -.2702E-4  0.1624E-3
  54.91     0.1235E-1  0.4833E-2  0.7722E-2  -.2030E-3  0.1567E-3  -.3126E-4  0.1880E-3
  55.05     0.1429E-1  0.5593E-2  0.8935E-2  -.2349E-3  0.1814E-3  -.3617E-4  0.2175E-3
  55.20     0.1654E-1  0.6472E-2  0.1034E-1  -.2718E-3  0.2099E-3  -.4185E-4  0.2517E-3
  55.35     0.1914E-1  0.7489E-2  0.1196E-1  -.3145E-3  0.2429E-3  -.4843E-4  0.2913E-3
  55.49     0.2214E-1  0.8666E-2  0.1384E-1  -.3638E-3  0.2810E-3  -.5603E-4  0.3371E-3
  55.64     0.2562E-1  0.1003E-1  0.1601E-1  -.4209E-3  0.3252E-3  -.6483E-4  0.3900E-3
  55.78     0.2964E-1  0.1160E-1  0.1852E-1  -.4869E-3  0.3763E-3  -.7500E-4  0.4513E-3
  55.93     0.3429E-1  0.1343E-1  0.2143E-1  -.5633E-3  0.4355E-3  -.8677E-4  0.5223E-3
  56.08     0.3967E-1  0.1553E-1  0.2479E-1  -.6516E-3  0.5040E-3  -.1004E-3  0.6044E-3
  56.22     0.4590E-1  0.1797E-1  0.2868E-1  -.7536E-3  0.5832E-3  -.1161E-3  0.6993E-3
  56.37     0.5309E-1  0.2080E-1  0.3317E-1  -.8716E-3  0.6749E-3  -.1343E-3  0.8092E-3
  56.51     0.6141E-1  0.2406E-1  0.3836E-1  -.1008E-2  0.7809E-3  -.1554E-3  0.9363E-3
  56.66     0.7104E-1  0.2784E-1  0.4436E-1  -.1166E-2  0.9037E-3  -.1797E-3  0.1083E-2
  56.81     0.8216E-1  0.3221E-1  0.5130E-1  -.1348E-2  0.1046E-2  -.2078E-3  0.1254E-2
  56.95     0.9501E-1  0.3726E-1  0.5931E-1  -.1558E-2  0.1210E-2  -.2403E-3  0.1450E-2
  57.10     0.1099     0.4310E-1  0.6857E-1  -.1801E-2  0.1400E-2  -.2779E-3  0.1678E-2
  57.24     0.1270     0.4986E-1  0.7926E-1  -.2081E-2  0.1620E-2  -.3213E-3  0.1941E-2
  57.39     0.1469     0.5767E-1  0.9159E-1  -.2405E-2  0.1875E-2  -.3714E-3  0.2246E-2
  57.54     0.1698     0.6670E-1  0.1058     -.2778E-2  0.2169E-2  -.4292E-3  0.2598E-2
  57.68     0.1962     0.7714E-1  0.1222     -.3208E-2  0.2510E-2  -.4959E-3  0.3006E-2
  57.83     0.2267     0.8920E-1  0.1412     -.3703E-2  0.2904E-2  -.5729E-3  0.3477E-2
  57.97     0.2618     0.1031     0.1630     -.4273E-2  0.3360E-2  -.6616E-3  0.4021E-2
  58.12     0.3024     0.1192     0.1881     -.4929E-2  0.3887E-2  -.7638E-3  0.4651E-2
  58.27     0.3491     0.1378     0.2169     -.5683E-2  0.4497E-2  -.8816E-3  0.5379E-2
  58.41     0.4028     0.1593     0.2501     -.6548E-2  0.5203E-2  -.1017E-2  0.6220E-2
  58.56     0.4647     0.1840     0.2882     -.7540E-2  0.6019E-2  -.1173E-2  0.7191E-2
  58.70     0.5358     0.2126     0.3318     -.8676E-2  0.6962E-2  -.1351E-2  0.8314E-2
  58.85     0.6174     0.2455     0.3818     -.9973E-2  0.8053E-2  -.1556E-2  0.9610E-2
  59.00     0.7109     0.2834     0.4390     -.1145E-1  0.9314E-2  -.1791E-2  0.1111E-1
  59.14     0.8181     0.3271     0.5041     -.1314E-1  0.1077E-1  -.2060E-2  0.1283E-1
  59.29     0.9405     0.3773     0.5783     -.1505E-1  0.1246E-1  -.2366E-2  0.1482E-1
  59.43      1.080     0.4349     0.6626     -.1721E-1  0.1440E-1  -.2715E-2  0.1712E-1
  59.58      1.239     0.5011     0.7580     -.1964E-1  0.1665E-1  -.3112E-2  0.1977E-1
  59.73      1.420     0.5770     0.8656     -.2238E-1  0.1925E-1  -.3562E-2  0.2281E-1
  59.87      1.625     0.6638     0.9867     -.2543E-1  0.2225E-1  -.4070E-2  0.2632E-1
  60.02      1.857     0.7630      1.122     -.2883E-1  0.2571E-1  -.4643E-2  0.3036E-1
  60.16      2.117     0.8761      1.273     -.3257E-1  0.2971E-1  -.5285E-2  0.3500E-1
  60.31      2.409      1.005      1.441     -.3667E-1  0.3432E-1  -.6002E-2  0.4032E-1
  60.46      2.735      1.150      1.626     -.4112E-1  0.3964E-1  -.6799E-2  0.4644E-1
  60.60      3.097      1.315      1.828     -.4589E-1  0.4576E-1  -.7680E-2  0.5344E-1
  60.75      3.497      1.501      2.047     -.5094E-1  0.5282E-1  -.8648E-2  0.6147E-1
  60.89      3.936      1.708      2.284     -.5620E-1  0.6095E-1  -.9703E-2  0.7065E-1
  61.04      4.414      1.940      2.536     -.6157E-1  0.7031E-1  -.1084E-1  0.8115E-1
  61.19      4.932      2.196      2.802     -.6691E-1  0.8106E-1  -.1207E-1  0.9313E-1
  61.33      5.486      2.478      3.080     -.7203E-1  0.9343E-1  -.1337E-1  0.1068   
  61.48      6.075      2.786      3.366     -.7669E-1  0.1076     -.1474E-1  0.1224   
  61.62      6.694      3.118      3.657     -.8061E-1  0.1239     -.1616E-1  0.1401   
  61.77      7.337      3.474      3.947     -.8342E-1  0.1426     -.1762E-1  0.1602   
  61.92      7.995      3.848      4.231     -.8469E-1  0.1640     -.1910E-1  0.1831   
  62.06      8.658      4.238      4.504     -.8395E-1  0.1885     -.2056E-1  0.2091   
  62.21      9.315      4.636      4.760     -.8062E-1  0.2166     -.2199E-1  0.2386   
  62.36      9.953      5.034      4.993     -.7409E-1  0.2486     -.2334E-1  0.2719   
  62.50      10.56      5.423      5.197     -.6367E-1  0.2850     -.2460E-1  0.3096   
  62.65      11.11      5.793      5.367     -.4862E-1  0.3266     -.2571E-1  0.3523   
  62.79      11.60      6.131      5.497     -.2820E-1  0.3737     -.2666E-1  0.4004   
  62.94      12.01      6.427      5.584     -.1643E-2  0.4272     -.2740E-1  0.4546   
  63.09      12.33      6.670      5.625     0.3181E-1  0.4877     -.2792E-1  0.5156   
  63.23      12.54      6.851      5.618     0.7285E-1  0.5558     -.2819E-1  0.5840   
  63.38      12.65      6.961      5.563     0.1221     0.6324     -.2820E-1  0.6606   
  63.52      12.64      6.997      5.461     0.1801     0.7180     -.2795E-1  0.7460   
  63.67      12.52      6.958      5.314     0.2472     0.8135     -.2743E-1  0.8409   
  63.82      12.30      6.844      5.128     0.3235     0.9191     -.2668E-1  0.9458   
  63.96      11.98      6.662      4.907     0.4092      1.035     -.2570E-1   1.061   
  64.11      11.58      6.418      4.657     0.5039      1.162     -.2454E-1   1.187   
  64.25      11.12      6.123      4.386     0.6071      1.300     -.2322E-1   1.323   
  64.40      10.60      5.786      4.100     0.7181      1.448     -.2179E-1   1.469   
  64.55      10.06      5.419      3.805     0.8358      1.604     -.2028E-1   1.625   
  64.69      9.501      5.033      3.508     0.9587      1.768     -.1874E-1   1.787   
  64.84      8.940      4.639      3.216      1.085      1.937     -.1720E-1   1.954   
  64.98      8.389      4.246      2.931      1.212      2.108     -.1568E-1   2.123   
  65.13      7.857      3.860      2.659      1.338      2.277     -.1421E-1   2.291   
  65.28      7.349      3.488      2.401      1.460      2.441     -.1280E-1   2.454   
  65.42      6.870      3.136      2.160      1.574      2.595     -.1148E-1   2.606   
  65.57      6.419      2.805      1.937      1.677      2.733     -.1025E-1   2.744   
  65.71      5.996      2.498      1.731      1.767      2.852     -.9121E-2   2.861   
  65.86      5.599      2.216      1.544      1.839      2.947     -.8084E-2   2.955   
  66.01      5.226      1.959      1.373      1.893      3.014     -.7142E-2   3.021   
  66.15      4.872      1.727      1.220      1.926      3.050     -.6292E-2   3.056   
  66.30      4.535      1.518      1.081      1.936      3.054     -.5530E-2   3.060   
  66.44      4.213      1.331     0.9570      1.925      3.026     -.4850E-2   3.031   
  66.59      3.903      1.165     0.8459      1.893      2.967     -.4245E-2   2.971   
  66.74      3.605      1.017     0.7466      1.841      2.879     -.3709E-2   2.882   
  66.88      3.317     0.8872     0.6581      1.772      2.765     -.3237E-2   2.769   
  67.03      3.040     0.7727     0.5793      1.688      2.631     -.2821E-2   2.634   
  67.17      2.775     0.6721     0.5093      1.594      2.480     -.2455E-2   2.483   
  67.32      2.522     0.5840     0.4472      1.491      2.318     -.2135E-2   2.320   
  67.47      2.283     0.5071     0.3922      1.384      2.149     -.1855E-2   2.151   
  67.61      2.058     0.4400     0.3435      1.274      1.978     -.1611E-2   1.979   
  67.76      1.847     0.3815     0.3005      1.165      1.807     -.1398E-2   1.809   
  67.90      1.652     0.3306     0.2626      1.059      1.641     -.1212E-2   1.642   
  68.05      1.472     0.2864     0.2292     0.9564      1.482     -.1051E-2   1.483   
  68.20      1.307     0.2480     0.1999     0.8595      1.331     -.9104E-3   1.332   
  68.34      1.158     0.2147     0.1741     0.7687      1.190     -.7885E-3   1.191   
  68.49      1.022     0.1858     0.1516     0.6847      1.060     -.6828E-3   1.060   
  68.63     0.9000     0.1607     0.1318     0.6075     0.9400     -.5910E-3  0.9406   
  68.78     0.7909     0.1390     0.1146     0.5373     0.8311     -.5115E-3  0.8316   
  68.93     0.6935     0.1203     0.9949E-1  0.4738     0.7327     -.4426E-3  0.7332   
  69.07     0.6070     0.1040     0.8635E-1  0.4167     0.6443     -.3829E-3  0.6447   
  69.22     0.5305     0.8992E-1  0.7491E-1  0.3656     0.5653     -.3312E-3  0.5657   
  69.36     0.4629     0.7775E-1  0.6495E-1  0.3202     0.4950     -.2864E-3  0.4953   
  69.51     0.4034     0.6722E-1  0.5629E-1  0.2799     0.4327     -.2477E-3  0.4330   
  69.66     0.3512     0.5811E-1  0.4877E-1  0.2444     0.3777     -.2142E-3  0.3779   
  69.80     0.3055     0.5023E-1  0.4224E-1  0.2130     0.3292     -.1852E-3  0.3294   
  69.95     0.2655     0.4342E-1  0.3657E-1  0.1855     0.2867     -.1601E-3  0.2868   
  70.09     0.2305     0.3753E-1  0.3166E-1  0.1613     0.2493     -.1384E-3  0.2495   
  70.24     0.2001     0.3244E-1  0.2740E-1  0.1402     0.2167     -.1196E-3  0.2168   
  70.39     0.1735     0.2804E-1  0.2370E-1  0.1218     0.1882     -.1034E-3  0.1883   
  70.53     0.1504     0.2423E-1  0.2051E-1  0.1057     0.1633     -.8938E-4  0.1634   
  70.68     0.1303     0.2094E-1  0.1774E-1  0.9166E-1  0.1416     -.7725E-4  0.1417   
  70.82     0.1129     0.1810E-1  0.1534E-1  0.7946E-1  0.1228     -.6677E-4  0.1228   
  70.97     0.9776E-1  0.1564E-1  0.1327E-1  0.6886E-1  0.1064     -.5771E-4  0.1064   
  71.12     0.8463E-1  0.1352E-1  0.1147E-1  0.5964E-1  0.9215E-1  -.4987E-4  0.9220E-1
  71.26     0.7325E-1  0.1168E-1  0.9918E-2  0.5165E-1  0.7980E-1  -.4310E-4  0.7984E-1
  71.41     0.6338E-1  0.1010E-1  0.8574E-2  0.4471E-1  0.6908E-1  -.3725E-4  0.6912E-1
  71.55     0.5483E-1  0.8724E-2  0.7412E-2  0.3870E-1  0.5979E-1  -.3219E-4  0.5982E-1
  71.70     0.4743E-1  0.7539E-2  0.6408E-2  0.3348E-1  0.5173E-1  -.2782E-4  0.5176E-1
  71.85     0.4102E-1  0.6515E-2  0.5539E-2  0.2897E-1  0.4475E-1  -.2404E-4  0.4478E-1
  71.99     0.3547E-1  0.5630E-2  0.4787E-2  0.2506E-1  0.3871E-1  -.2078E-4  0.3873E-1
  72.14     0.3067E-1  0.4865E-2  0.4138E-2  0.2167E-1  0.3348E-1  -.1795E-4  0.3350E-1
  72.29     0.2652E-1  0.4204E-2  0.3576E-2  0.1874E-1  0.2895E-1  -.1552E-4  0.2897E-1
  72.43     0.2293E-1  0.3633E-2  0.3091E-2  0.1621E-1  0.2504E-1  -.1341E-4  0.2505E-1
  72.58     0.1982E-1  0.3140E-2  0.2671E-2  0.1401E-1  0.2165E-1  -.1159E-4  0.2166E-1
  72.72     0.1714E-1  0.2713E-2  0.2309E-2  0.1211E-1  0.1871E-1  -.1001E-4  0.1872E-1
  72.87     0.1481E-1  0.2345E-2  0.1995E-2  0.1047E-1  0.1618E-1  -.8653E-5  0.1619E-1
# 
# YPP_PH@anomaly x 001 CPUs * 03/26/2013  13:33 [start]
#                             03/26/2013  13:33 [end]
#
# .-Input file : INPUTS/04_eliashberg
# | electrons                    # [R] Electrons (and holes)
# | eliashberg                   # [R] Eliashberg
# | PhBroad=0.1000E-2      eV    # Phonon broadening (Eliashberg & DOS)
# | PhStps=  500                 # Energy steps
