#                                                           
# :::   :::   :::     ::::    ::::  :::::::::   ::::::::    
# :+:   :+: :+: :+:   +:+:+: :+:+:+ :+:    :+: :+:    :+:   
#  +:+ +:+ +:+   +:+  +:+ +:+:+ +:+ +:+    +:+ +:+    +:+   
#   +#++: +#++:++#++: +#+  +:+  +#+ +#++:++#+  +#+    +:+   
#    +#+  +#+     +#+ +#+       +#+ +#+    +#+ +#+    +#+   
#    #+#  #+#     #+# #+#       #+# #+#    #+# #+#    #+#   
#    ###  ###     ### ###       ### #########   ########    
#                                                           
#             GPL Version 4.0.0 Revision 4281               
#                    MPI+OpenMP Build                       
#                http://www.yambo-code.org                  
#
# Absorption @ Q(1) [q->0 direction] :0.1000E-4  0.000     0.000   
#
#
# - Energies      are +Vosko, Wilk & Nusair (VWN5_RPA)(C)
# - Wavefunctions are +Vosko, Wilk & Nusair (VWN5_RPA)(C)
#
# - The Green`s function is causal -
# - Using the Length Gauge -
# - [r,Vnl] is *NOT* included -
#
#   BSK|Identifier              :8897
#      |Dimension               :144
#      |Bands                   :1 - 40
#      |Exchange           [res]: yes
#      |Correlation        [res]: no
#      |Kernel`s coupling       : yes
#      |Exchange           [cpl]: yes
#      |W interaction is bare   : no
#      |Correlation        [cpl]: no
#      |ALDA kernel in R-space  : yes
#      |RL vectors    [exchange]:50301
#      |E/h energy range    [ev]:-1.000000 - -1.000000
#      |Coupling range     [o/o]: 100.0000 -  100.0000
#  
#   Haydock|Accuracy (requested) [o/o]:0.1000E-2
#          |Accuracy (reached)   [o/o]:0.3187E-3
#          |Iteration                 :58
#
#  E/ev[1]    eps /Im[2] eps /Re[3] eps0/Im[4] eps0/Re[5] eps`/Im[6] eps`/Re[7]
#
  6.000     0.2278E-3   1.014     0.9837E-3   1.029     0.2278E-3   1.014   
  6.015     0.2298E-3   1.014     0.9970E-3   1.029     0.2298E-3   1.014   
  6.030     0.2319E-3   1.014     0.1011E-2   1.029     0.2319E-3   1.014   
  6.045     0.2340E-3   1.014     0.1024E-2   1.029     0.2340E-3   1.014   
  6.060     0.2361E-3   1.014     0.1038E-2   1.029     0.2361E-3   1.014   
  6.075     0.2383E-3   1.014     0.1053E-2   1.029     0.2383E-3   1.014   
  6.090     0.2404E-3   1.014     0.1067E-2   1.030     0.2404E-3   1.014   
  6.105     0.2427E-3   1.014     0.1082E-2   1.030     0.2427E-3   1.014   
  6.120     0.2449E-3   1.014     0.1098E-2   1.030     0.2449E-3   1.014   
  6.135     0.2472E-3   1.014     0.1113E-2   1.030     0.2472E-3   1.014   
  6.150     0.2495E-3   1.014     0.1129E-2   1.030     0.2495E-3   1.014   
  6.165     0.2519E-3   1.014     0.1146E-2   1.030     0.2519E-3   1.014   
  6.180     0.2543E-3   1.014     0.1162E-2   1.031     0.2543E-3   1.014   
  6.195     0.2567E-3   1.014     0.1179E-2   1.031     0.2567E-3   1.014   
  6.211     0.2592E-3   1.014     0.1197E-2   1.031     0.2592E-3   1.014   
  6.226     0.2617E-3   1.014     0.1214E-2   1.031     0.2617E-3   1.014   
  6.241     0.2642E-3   1.014     0.1232E-2   1.031     0.2642E-3   1.014   
  6.256     0.2668E-3   1.014     0.1251E-2   1.032     0.2668E-3   1.014   
  6.271     0.2694E-3   1.014     0.1270E-2   1.032     0.2694E-3   1.014   
  6.286     0.2721E-3   1.014     0.1289E-2   1.032     0.2721E-3   1.014   
  6.301     0.2748E-3   1.014     0.1309E-2   1.032     0.2748E-3   1.014   
  6.316     0.2776E-3   1.014     0.1330E-2   1.032     0.2776E-3   1.014   
  6.331     0.2804E-3   1.014     0.1351E-2   1.032     0.2804E-3   1.014   
  6.346     0.2833E-3   1.014     0.1372E-2   1.033     0.2833E-3   1.014   
  6.361     0.2862E-3   1.015     0.1394E-2   1.033     0.2862E-3   1.015   
  6.376     0.2892E-3   1.015     0.1416E-2   1.033     0.2892E-3   1.015   
  6.391     0.2922E-3   1.015     0.1439E-2   1.033     0.2922E-3   1.015   
  6.406     0.2953E-3   1.015     0.1462E-2   1.034     0.2953E-3   1.015   
  6.421     0.2984E-3   1.015     0.1487E-2   1.034     0.2984E-3   1.015   
  6.436     0.3016E-3   1.015     0.1511E-2   1.034     0.3016E-3   1.015   
  6.451     0.3048E-3   1.015     0.1536E-2   1.034     0.3048E-3   1.015   
  6.466     0.3081E-3   1.015     0.1562E-2   1.034     0.3081E-3   1.015   
  6.481     0.3115E-3   1.015     0.1589E-2   1.035     0.3115E-3   1.015   
  6.496     0.3150E-3   1.015     0.1616E-2   1.035     0.3150E-3   1.015   
  6.511     0.3185E-3   1.015     0.1644E-2   1.035     0.3185E-3   1.015   
  6.526     0.3220E-3   1.015     0.1673E-2   1.035     0.3220E-3   1.015   
  6.541     0.3257E-3   1.015     0.1703E-2   1.036     0.3257E-3   1.015   
  6.556     0.3294E-3   1.015     0.1733E-2   1.036     0.3294E-3   1.015   
  6.571     0.3332E-3   1.015     0.1764E-2   1.036     0.3332E-3   1.015   
  6.586     0.3371E-3   1.015     0.1796E-2   1.036     0.3371E-3   1.015   
  6.602     0.3410E-3   1.015     0.1829E-2   1.037     0.3410E-3   1.015   
  6.617     0.3451E-3   1.015     0.1863E-2   1.037     0.3451E-3   1.015   
  6.632     0.3492E-3   1.015     0.1898E-2   1.037     0.3492E-3   1.015   
  6.647     0.3534E-3   1.015     0.1934E-2   1.038     0.3534E-3   1.015   
  6.662     0.3578E-3   1.015     0.1971E-2   1.038     0.3578E-3   1.015   
  6.677     0.3622E-3   1.016     0.2009E-2   1.038     0.3622E-3   1.016   
  6.692     0.3667E-3   1.016     0.2048E-2   1.038     0.3667E-3   1.016   
  6.707     0.3713E-3   1.016     0.2088E-2   1.039     0.3713E-3   1.016   
  6.722     0.3760E-3   1.016     0.2130E-2   1.039     0.3760E-3   1.016   
  6.737     0.3809E-3   1.016     0.2173E-2   1.039     0.3809E-3   1.016   
  6.752     0.3858E-3   1.016     0.2217E-2   1.040     0.3858E-3   1.016   
  6.767     0.3909E-3   1.016     0.2262E-2   1.040     0.3909E-3   1.016   
  6.782     0.3961E-3   1.016     0.2309E-2   1.040     0.3961E-3   1.016   
  6.797     0.4014E-3   1.016     0.2358E-2   1.041     0.4014E-3   1.016   
  6.812     0.4069E-3   1.016     0.2408E-2   1.041     0.4069E-3   1.016   
  6.827     0.4125E-3   1.016     0.2460E-2   1.041     0.4125E-3   1.016   
  6.842     0.4182E-3   1.016     0.2513E-2   1.042     0.4182E-3   1.016   
  6.857     0.4242E-3   1.016     0.2569E-2   1.042     0.4242E-3   1.016   
  6.872     0.4302E-3   1.016     0.2626E-2   1.043     0.4302E-3   1.016   
  6.887     0.4364E-3   1.016     0.2685E-2   1.043     0.4364E-3   1.016   
  6.902     0.4429E-3   1.016     0.2747E-2   1.043     0.4429E-3   1.016   
  6.917     0.4494E-3   1.017     0.2810E-2   1.044     0.4494E-3   1.017   
  6.932     0.4562E-3   1.017     0.2876E-2   1.044     0.4562E-3   1.017   
  6.947     0.4632E-3   1.017     0.2945E-2   1.045     0.4632E-3   1.017   
  6.962     0.4704E-3   1.017     0.3016E-2   1.045     0.4704E-3   1.017   
  6.977     0.4778E-3   1.017     0.3089E-2   1.046     0.4778E-3   1.017   
  6.992     0.4854E-3   1.017     0.3166E-2   1.046     0.4854E-3   1.017   
  7.008     0.4933E-3   1.017     0.3245E-2   1.046     0.4933E-3   1.017   
  7.023     0.5014E-3   1.017     0.3328E-2   1.047     0.5014E-3   1.017   
  7.038     0.5097E-3   1.017     0.3414E-2   1.047     0.5097E-3   1.017   
  7.053     0.5184E-3   1.017     0.3504E-2   1.048     0.5184E-3   1.017   
  7.068     0.5273E-3   1.017     0.3597E-2   1.049     0.5273E-3   1.017   
  7.083     0.5366E-3   1.017     0.3694E-2   1.049     0.5366E-3   1.017   
  7.098     0.5461E-3   1.017     0.3796E-2   1.050     0.5461E-3   1.017   
  7.113     0.5561E-3   1.017     0.3902E-2   1.050     0.5561E-3   1.017   
  7.128     0.5663E-3   1.018     0.4012E-2   1.051     0.5663E-3   1.018   
  7.143     0.5770E-3   1.018     0.4128E-2   1.051     0.5770E-3   1.018   
  7.158     0.5880E-3   1.018     0.4249E-2   1.052     0.5880E-3   1.018   
  7.173     0.5995E-3   1.018     0.4376E-2   1.053     0.5995E-3   1.018   
  7.188     0.6114E-3   1.018     0.4509E-2   1.053     0.6114E-3   1.018   
  7.203     0.6238E-3   1.018     0.4648E-2   1.054     0.6238E-3   1.018   
  7.218     0.6367E-3   1.018     0.4795E-2   1.055     0.6367E-3   1.018   
  7.233     0.6501E-3   1.018     0.4948E-2   1.055     0.6501E-3   1.018   
  7.248     0.6641E-3   1.018     0.5110E-2   1.056     0.6641E-3   1.018   
  7.263     0.6787E-3   1.018     0.5281E-2   1.057     0.6787E-3   1.018   
  7.278     0.6940E-3   1.018     0.5461E-2   1.058     0.6940E-3   1.018   
  7.293     0.7099E-3   1.019     0.5651E-2   1.058     0.7099E-3   1.019   
  7.308     0.7266E-3   1.019     0.5851E-2   1.059     0.7266E-3   1.019   
  7.323     0.7441E-3   1.019     0.6064E-2   1.060     0.7441E-3   1.019   
  7.338     0.7624E-3   1.019     0.6289E-2   1.061     0.7624E-3   1.019   
  7.353     0.7817E-3   1.019     0.6528E-2   1.062     0.7817E-3   1.019   
  7.368     0.8019E-3   1.019     0.6782E-2   1.063     0.8019E-3   1.019   
  7.383     0.8232E-3   1.019     0.7052E-2   1.064     0.8232E-3   1.019   
  7.398     0.8456E-3   1.019     0.7341E-2   1.065     0.8456E-3   1.019   
  7.414     0.8693E-3   1.020     0.7649E-2   1.066     0.8693E-3   1.020   
  7.429     0.8943E-3   1.020     0.7978E-2   1.067     0.8943E-3   1.020   
  7.444     0.9207E-3   1.020     0.8332E-2   1.068     0.9207E-3   1.020   
  7.459     0.9487E-3   1.020     0.8712E-2   1.070     0.9487E-3   1.020   
  7.474     0.9784E-3   1.020     0.9121E-2   1.071     0.9784E-3   1.020   
  7.489     0.1010E-2   1.020     0.9563E-2   1.072     0.1010E-2   1.020   
  7.504     0.1044E-2   1.020     0.1004E-1   1.074     0.1044E-2   1.020   
  7.519     0.1079E-2   1.021     0.1056E-1   1.075     0.1079E-2   1.021   
  7.534     0.1118E-2   1.021     0.1112E-1   1.077     0.1118E-2   1.021   
  7.549     0.1159E-2   1.021     0.1174E-1   1.078     0.1159E-2   1.021   
  7.564     0.1203E-2   1.021     0.1242E-1   1.080     0.1203E-2   1.021   
  7.579     0.1250E-2   1.021     0.1316E-1   1.082     0.1250E-2   1.021   
  7.594     0.1301E-2   1.021     0.1398E-1   1.083     0.1301E-2   1.021   
  7.609     0.1355E-2   1.022     0.1489E-1   1.085     0.1355E-2   1.022   
  7.624     0.1415E-2   1.022     0.1590E-1   1.087     0.1415E-2   1.022   
  7.639     0.1479E-2   1.022     0.1703E-1   1.089     0.1479E-2   1.022   
  7.654     0.1549E-2   1.022     0.1830E-1   1.092     0.1549E-2   1.022   
  7.669     0.1625E-2   1.022     0.1974E-1   1.094     0.1625E-2   1.022   
  7.684     0.1709E-2   1.023     0.2137E-1   1.097     0.1709E-2   1.023   
  7.699     0.1800E-2   1.023     0.2323E-1   1.099     0.1800E-2   1.023   
  7.714     0.1901E-2   1.023     0.2537E-1   1.102     0.1901E-2   1.023   
  7.729     0.2013E-2   1.023     0.2785E-1   1.105     0.2013E-2   1.023   
  7.744     0.2136E-2   1.024     0.3073E-1   1.108     0.2136E-2   1.024   
  7.759     0.2273E-2   1.024     0.3409E-1   1.111     0.2273E-2   1.024   
  7.774     0.2427E-2   1.024     0.3804E-1   1.114     0.2427E-2   1.024   
  7.789     0.2599E-2   1.025     0.4268E-1   1.117     0.2599E-2   1.025   
  7.805     0.2793E-2   1.025     0.4812E-1   1.120     0.2793E-2   1.025   
  7.820     0.3013E-2   1.025     0.5445E-1   1.122     0.3013E-2   1.025   
  7.835     0.3263E-2   1.026     0.6167E-1   1.123     0.3263E-2   1.026   
  7.850     0.3549E-2   1.026     0.6966E-1   1.123     0.3549E-2   1.026   
  7.865     0.3879E-2   1.027     0.7801E-1   1.121     0.3879E-2   1.027   
  7.880     0.4259E-2   1.027     0.8599E-1   1.117     0.4259E-2   1.027   
  7.895     0.4702E-2   1.027     0.9254E-1   1.111     0.4702E-2   1.027   
  7.910     0.5221E-2   1.028     0.9663E-1   1.103     0.5221E-2   1.028   
  7.925     0.5831E-2   1.028     0.9764E-1   1.095     0.5831E-2   1.028   
  7.940     0.6552E-2   1.029     0.9577E-1   1.088     0.6552E-2   1.029   
  7.955     0.7410E-2   1.030     0.9193E-1   1.084     0.7410E-2   1.030   
    7.9699     0.0084     1.0300     0.0873     1.0816     0.0084     1.0300
    7.9850     0.0096     1.0305     0.0828     1.0821     0.0096     1.0305
   8.00000    0.01109    1.03082    0.07919    1.08469    0.01109    1.03082
   8.01504    0.01278    1.03097    0.07676    1.08876    0.01278    1.03097
   8.03008    0.01473    1.03081    0.07568    1.09397    0.01473    1.03081
   8.04511    0.01688    1.03021    0.07600    1.10001    0.01688    1.03021
   8.06015    0.01912    1.02901    0.07777    1.10666    0.01912    1.02901
   8.07519    0.02121    1.02709    0.08102    1.11377    0.02121    1.02709
   8.09023    0.02284    1.02447    0.08585    1.12124    0.02284    1.02447
   8.10526    0.02365    1.02132    0.09241    1.12894    0.02365    1.02132
   8.12030    0.02348    1.01805    0.10090    1.13674    0.02348    1.01805
   8.13534    0.02235    1.01508    0.11163    1.14443    0.02235    1.01508
   8.15038    0.02055    1.01274    0.12495    1.15169    0.02055    1.01274
   8.16541    0.01842    1.01114    0.14127    1.15803    0.01842    1.01114
   8.18045    0.01625    1.01023    0.16102    1.16268    0.01625    1.01022
   8.19549    0.01422    1.00985    0.18452    1.16448    0.01422    1.00985
   8.21053    0.01243    1.00987    0.21176    1.16185    0.01243    1.00987
   8.22556    0.01090    1.01015    0.24210    1.15272    0.01090    1.01015
    8.2406     0.0096     1.0106     0.2737     1.1349     0.0096     1.0106
    8.2556     0.0085     1.0111     0.3033     1.1066     0.0085     1.0111
  8.271     0.7664E-2   1.012     0.3260      1.068     0.7663E-2   1.012   
  8.286     0.6942E-2   1.012     0.3373      1.022     0.6942E-2   1.012   
  8.301     0.6354E-2   1.013     0.3342     0.9740     0.6354E-2   1.013   
  8.316     0.5878E-2   1.014     0.3176     0.9304     0.5878E-2   1.014   
  8.331     0.5498E-2   1.014     0.2912     0.8957     0.5498E-2   1.014   
  8.346     0.5202E-2   1.015     0.2602     0.8717     0.5202E-2   1.015   
  8.361     0.4979E-2   1.015     0.2286     0.8575     0.4979E-2   1.015   
  8.376     0.4824E-2   1.016     0.1992     0.8510     0.4824E-2   1.016   
  8.391     0.4733E-2   1.016     0.1732     0.8500     0.4733E-2   1.016   
  8.406     0.4705E-2   1.017     0.1511     0.8527     0.4705E-2   1.017   
  8.421     0.4740E-2   1.017     0.1326     0.8575     0.4740E-2   1.017   
  8.436     0.4838E-2   1.018     0.1173     0.8635     0.4838E-2   1.018   
  8.451     0.5001E-2   1.018     0.1047     0.8699     0.5001E-2   1.018   
  8.466     0.5225E-2   1.019     0.9437E-1  0.8763     0.5225E-2   1.019   
  8.481     0.5500E-2   1.019     0.8574E-1  0.8823     0.5500E-2   1.019   
  8.496     0.5803E-2   1.019     0.7837E-1  0.8880     0.5803E-2   1.019   
  8.511     0.6091E-2   1.019     0.7191E-1  0.8932     0.6091E-2   1.019   
  8.526     0.6310E-2   1.019     0.6610E-1  0.8982     0.6310E-2   1.019   
  8.541     0.6406E-2   1.019     0.6085E-1  0.9031     0.6406E-2   1.019   
  8.556     0.6350E-2   1.019     0.5614E-1  0.9080     0.6351E-2   1.019   
  8.571     0.6158E-2   1.018     0.5203E-1  0.9129     0.6158E-2   1.018   
  8.586     0.5874E-2   1.018     0.4851E-1  0.9177     0.5875E-2   1.018   
  8.602     0.5559E-2   1.018     0.4560E-1  0.9225     0.5559E-2   1.018   
  8.617     0.5259E-2   1.019     0.4328E-1  0.9272     0.5258E-2   1.019   
  8.632     0.5005E-2   1.019     0.4152E-1  0.9316     0.5005E-2   1.019   
  8.647     0.4814E-2   1.019     0.4030E-1  0.9359     0.4814E-2   1.019   
  8.662     0.4692E-2   1.020     0.3960E-1  0.9398     0.4690E-2   1.020   
  8.677     0.4637E-2   1.020     0.3939E-1  0.9434     0.4636E-2   1.020   
  8.692     0.4649E-2   1.020     0.3963E-1  0.9465     0.4648E-2   1.020   
  8.707     0.4721E-2   1.021     0.4022E-1  0.9491     0.4720E-2   1.021   
  8.722     0.4844E-2   1.021     0.4099E-1  0.9509     0.4845E-2   1.021   
  8.737     0.5006E-2   1.021     0.4168E-1  0.9521     0.5008E-2   1.021   
  8.752     0.5186E-2   1.022     0.4201E-1  0.9525     0.5190E-2   1.022   
  8.767     0.5367E-2   1.022     0.4177E-1  0.9526     0.5369E-2   1.022   
  8.782     0.5531E-2   1.022     0.4088E-1  0.9527     0.5530E-2   1.022   
  8.797     0.5669E-2   1.022     0.3949E-1  0.9530     0.5662E-2   1.022   
  8.812     0.5773E-2   1.022     0.3783E-1  0.9537     0.5760E-2   1.022   
  8.827     0.5831E-2   1.022     0.3611E-1  0.9548     0.5818E-2   1.022   
  8.842     0.5831E-2   1.022     0.3446E-1  0.9562     0.5823E-2   1.022   
  8.857     0.5767E-2   1.022     0.3294E-1  0.9579     0.5770E-2   1.022   
  8.872     0.5654E-2   1.023     0.3156E-1  0.9598     0.5667E-2   1.023   
  8.887     0.5519E-2   1.023     0.3036E-1  0.9619     0.5539E-2   1.023   
  8.902     0.5395E-2   1.023     0.2939E-1  0.9642     0.5416E-2   1.023   
  8.917     0.5307E-2   1.023     0.2871E-1  0.9667     0.5326E-2   1.023   
  8.932     0.5272E-2   1.024     0.2836E-1  0.9693     0.5286E-2   1.024   
  8.947     0.5302E-2   1.024     0.2837E-1  0.9720     0.5309E-2   1.024   
  8.962     0.5401E-2   1.025     0.2878E-1  0.9747     0.5401E-2   1.025   
  8.977     0.5574E-2   1.026     0.2960E-1  0.9773     0.5567E-2   1.025   
  8.992     0.5828E-2   1.026     0.3085E-1  0.9798     0.5813E-2   1.026   
  9.008     0.6170E-2   1.027     0.3254E-1  0.9821     0.6146E-2   1.027   
  9.023     0.6608E-2   1.027     0.3465E-1  0.9840     0.6576E-2   1.027   
  9.038     0.7153E-2   1.028     0.3712E-1  0.9856     0.7115E-2   1.028   
  9.053     0.7814E-2   1.028     0.3989E-1  0.9866     0.7774E-2   1.028   
  9.068     0.8597E-2   1.029     0.4285E-1  0.9871     0.8562E-2   1.029   
    9.0827     0.0095     1.0291     0.0459     0.9869     0.0095     1.0292
   9.09774    0.01049    1.02928    0.04906    0.98607    0.01051    1.02937
   9.11278    0.01154    1.02929    0.05203    0.98438    0.01162    1.02937
   9.12782    0.01261    1.02911    0.05457    0.98181    0.01275    1.02915
   9.14286    0.01367    1.02875    0.05632    0.97846    0.01382    1.02870
   9.15790    0.01468    1.02820    0.05693    0.97466    0.01480    1.02805
   9.17293    0.01564    1.02744    0.05629    0.97089    0.01565    1.02723
   9.18797    0.01649    1.02643    0.05454    0.96767    0.01636    1.02623
   9.20301    0.01711    1.02514    0.05207    0.96534    0.01688    1.02505
   9.21805    0.01735    1.02364    0.04933    0.96400    0.01711    1.02369
   9.23308    0.01710    1.02211    0.04673    0.96350    0.01693    1.02228
   9.24812    0.01637    1.02075    0.04450    0.96357    0.01632    1.02097
   9.26316    0.01530    1.01975    0.04266    0.96391    0.01536    1.01995
   9.27820    0.01406    1.01919    0.04111    0.96432    0.01419    1.01932
   9.29323    0.01283    1.01902    0.03965    0.96473    0.01298    1.01908
   9.30827    0.01171    1.01918    0.03815    0.96522    0.01186    1.01918
   9.32331    0.01076    1.01958    0.03658    0.96595    0.01089    1.01952
    9.3383     0.0100     1.0201     0.0350     0.9671     0.0101     1.0201
    9.3534     0.0094     1.0208     0.0337     0.9686     0.0095     1.0207
  9.368     0.9027E-2   1.022     0.3271E-1  0.9704     0.9048E-2   1.021   
  9.383     0.8798E-2   1.022     0.3217E-1  0.9726     0.8781E-2   1.022   
  9.398     0.8726E-2   1.023     0.3218E-1  0.9749     0.8670E-2   1.023   
  9.414     0.8803E-2   1.024     0.3276E-1  0.9772     0.8710E-2   1.024   
  9.429     0.9021E-2   1.024     0.3398E-1  0.9794     0.8893E-2   1.024   
  9.444     0.9369E-2   1.025     0.3583E-1  0.9814     0.9213E-2   1.025   
    9.4586     0.0098     1.0254     0.0383     0.9829     0.0097     1.0254
   9.47368    0.01033    1.02568    0.04144    0.98370    0.01018    1.02580
   9.48872    0.01083    1.02579    0.04496    0.98358    0.01073    1.02598
   9.50376    0.01124    1.02574    0.04858    0.98227    0.01123    1.02598
   9.51880    0.01149    1.02561    0.05181    0.97966    0.01160    1.02584
   9.53384    0.01157    1.02549    0.05409    0.97593    0.01178    1.02565
   9.54887    0.01152    1.02549    0.05498    0.97157    0.01180    1.02553
   9.56391    0.01144    1.02563    0.05437    0.96725    0.01171    1.02554
   9.57895    0.01142    1.02592    0.05254    0.96354    0.01162    1.02573
   9.59398    0.01153    1.02631    0.04994    0.96075    0.01163    1.02604
   9.60902    0.01180    1.02672    0.04701    0.95890    0.01178    1.02643
   9.62406    0.01225    1.02707    0.04405    0.95785    0.01211    1.02682
   9.63910    0.01285    1.02728    0.04120    0.95746    0.01260    1.02711
   9.65414    0.01353    1.02726    0.03855    0.95762    0.01322    1.02721
   9.66917    0.01418    1.02698    0.03619    0.95822    0.01387    1.02708
   9.68421    0.01465    1.02645    0.03416    0.95917    0.01443    1.02668
   9.69925    0.01484    1.02578    0.03249    0.96033    0.01474    1.02609
   9.71429    0.01468    1.02514    0.03113    0.96160    0.01475    1.02545
   9.72932    0.01426    1.02469    0.03002    0.96294    0.01444    1.02492
   9.74436    0.01369    1.02451    0.02910    0.96435    0.01394    1.02463
   9.75940    0.01311    1.02463    0.02836    0.96589    0.01337    1.02463
   9.77444    0.01264    1.02499    0.02785    0.96759    0.01287    1.02490
   9.78947    0.01236    1.02553    0.02766    0.96944    0.01251    1.02537
   9.80451    0.01228    1.02616    0.02785    0.97139    0.01236    1.02596
   9.81955    0.01244    1.02682    0.02848    0.97338    0.01244    1.02661
   9.83459    0.01283    1.02743    0.02961    0.97531    0.01276    1.02723
   9.84962    0.01345    1.02790    0.03123    0.97709    0.01330    1.02775
   9.86466    0.01425    1.02815    0.03337    0.97858    0.01405    1.02807
   9.87970    0.01516    1.02809    0.03600    0.97969    0.01493    1.02810
   9.89474    0.01603    1.02766    0.03909    0.98029    0.01583    1.02778
   9.90977    0.01670    1.02687    0.04262    0.98024    0.01657    1.02708
   9.92481    0.01700    1.02583    0.04650    0.97932    0.01699    1.02607
   9.93985    0.01684    1.02474    0.05058    0.97729    0.01695    1.02495
   9.95489    0.01625    1.02381    0.05446    0.97390    0.01645    1.02393
   9.96992    0.01539    1.02319    0.05758    0.96908    0.01561    1.02320
   9.98496    0.01442    1.02293    0.05927    0.96313    0.01460    1.02283
  10.00000    0.01350    1.02296    0.05913    0.95672    0.01360    1.02280
  10.01504    0.01269    1.02322    0.05714    0.95066    0.01270    1.02304
  10.03008    0.01203    1.02359    0.05374    0.94557    0.01195    1.02344
  10.04511    0.01150    1.02401    0.04949    0.94172    0.01137    1.02393
  10.06015    0.01106    1.02443    0.04491    0.93908    0.01092    1.02444
  10.07519    0.01066    1.02485    0.04033    0.93750    0.01056    1.02493
  10.09023    0.01027    1.02528    0.03594    0.93677    0.01024    1.02538
  10.11     0.9910E-2   1.026     0.3186E-1  0.9367     0.9934E-2   1.026   
  10.12     0.9575E-2   1.026     0.2816E-1  0.9372     0.9631E-2   1.026   
  10.14     0.9275E-2   1.027     0.2487E-1  0.9382     0.9332E-2   1.027   
  10.15     0.9003E-2   1.027     0.2201E-1  0.9393     0.9041E-2   1.027   
  10.17     0.8739E-2   1.028     0.1955E-1  0.9407     0.8755E-2   1.028   
  10.18     0.8462E-2   1.028     0.1744E-1  0.9421     0.8461E-2   1.028   
  10.20     0.8162E-2   1.029     0.1564E-1  0.9435     0.8155E-2   1.029   
  10.21     0.7851E-2   1.029     0.1411E-1  0.9450     0.7843E-2   1.029   
  10.23     0.7545E-2   1.030     0.1280E-1  0.9464     0.7539E-2   1.030   
  10.24     0.7266E-2   1.031     0.1167E-1  0.9477     0.7262E-2   1.031   
  10.26     0.7026E-2   1.031     0.1069E-1  0.9490     0.7024E-2   1.031   
  10.27     0.6829E-2   1.032     0.9843E-2  0.9502     0.6828E-2   1.032   
  10.29     0.6677E-2   1.033     0.9101E-2  0.9514     0.6677E-2   1.033   
  10.30     0.6567E-2   1.034     0.8449E-2  0.9525     0.6567E-2   1.034   
  10.32     0.6493E-2   1.035     0.7873E-2  0.9535     0.6493E-2   1.035   
  10.33     0.6454E-2   1.036     0.7361E-2  0.9545     0.6454E-2   1.036   
  10.35     0.6443E-2   1.037     0.6905E-2  0.9555     0.6443E-2   1.037   
  10.36     0.6459E-2   1.038     0.6495E-2  0.9564     0.6460E-2   1.038   
  10.38     0.6500E-2   1.038     0.6127E-2  0.9572     0.6500E-2   1.038   
  10.39     0.6562E-2   1.039     0.5794E-2  0.9580     0.6562E-2   1.039   
  10.41     0.6644E-2   1.040     0.5491E-2  0.9588     0.6644E-2   1.040   
  10.42     0.6746E-2   1.041     0.5216E-2  0.9595     0.6746E-2   1.041   
  10.44     0.6866E-2   1.042     0.4964E-2  0.9603     0.6866E-2   1.042   
  10.45     0.7005E-2   1.043     0.4733E-2  0.9609     0.7005E-2   1.043   
  10.47     0.7162E-2   1.044     0.4521E-2  0.9616     0.7162E-2   1.044   
  10.48     0.7336E-2   1.045     0.4325E-2  0.9622     0.7336E-2   1.045   
  10.50     0.7529E-2   1.046     0.4144E-2  0.9628     0.7529E-2   1.046   
  10.51     0.7740E-2   1.047     0.3976E-2  0.9634     0.7740E-2   1.047   
  10.53     0.7971E-2   1.049     0.3820E-2  0.9640     0.7971E-2   1.049   
  10.54     0.8222E-2   1.050     0.3675E-2  0.9645     0.8222E-2   1.050   
  10.56     0.8494E-2   1.051     0.3540E-2  0.9650     0.8494E-2   1.051   
  10.57     0.8789E-2   1.052     0.3413E-2  0.9655     0.8789E-2   1.052   
  10.59     0.9108E-2   1.054     0.3294E-2  0.9660     0.9108E-2   1.054   
  10.60     0.9452E-2   1.055     0.3183E-2  0.9665     0.9452E-2   1.055   
  10.62     0.9824E-2   1.056     0.3078E-2  0.9669     0.9824E-2   1.056   
  10.63     0.1023E-1   1.058     0.2979E-2  0.9674     0.1023E-1   1.058   
  10.65     0.1066E-1   1.059     0.2886E-2  0.9678     0.1066E-1   1.059   
  10.66     0.1113E-1   1.061     0.2798E-2  0.9682     0.1113E-1   1.061   
  10.68     0.1163E-1   1.062     0.2715E-2  0.9686     0.1163E-1   1.062   
  10.69     0.1218E-1   1.064     0.2636E-2  0.9690     0.1218E-1   1.064   
  10.71     0.1278E-1   1.066     0.2561E-2  0.9694     0.1278E-1   1.066   
  10.72     0.1342E-1   1.068     0.2490E-2  0.9698     0.1342E-1   1.068   
  10.74     0.1412E-1   1.070     0.2423E-2  0.9701     0.1412E-1   1.070   
  10.75     0.1488E-1   1.072     0.2359E-2  0.9705     0.1488E-1   1.072   
  10.77     0.1571E-1   1.074     0.2297E-2  0.9708     0.1571E-1   1.074   
  10.78     0.1662E-1   1.076     0.2239E-2  0.9712     0.1662E-1   1.076   
  10.80     0.1762E-1   1.078     0.2183E-2  0.9715     0.1762E-1   1.078   
  10.81     0.1871E-1   1.081     0.2130E-2  0.9718     0.1871E-1   1.081   
  10.83     0.1990E-1   1.083     0.2079E-2  0.9721     0.1990E-1   1.083   
  10.84     0.2123E-1   1.086     0.2030E-2  0.9724     0.2123E-1   1.086   
  10.86     0.2269E-1   1.089     0.1983E-2  0.9727     0.2269E-1   1.089   
  10.87     0.2431E-1   1.092     0.1938E-2  0.9730     0.2431E-1   1.092   
  10.89     0.2611E-1   1.096     0.1895E-2  0.9733     0.2611E-1   1.096   
  10.90     0.2812E-1   1.099     0.1854E-2  0.9736     0.2812E-1   1.099   
  10.92     0.3037E-1   1.103     0.1814E-2  0.9739     0.3037E-1   1.103   
  10.93     0.3290E-1   1.107     0.1776E-2  0.9741     0.3290E-1   1.107   
  10.95     0.3576E-1   1.111     0.1739E-2  0.9744     0.3576E-1   1.111   
  10.96     0.3900E-1   1.116     0.1703E-2  0.9746     0.3900E-1   1.116   
  10.98     0.4269E-1   1.121     0.1669E-2  0.9749     0.4269E-1   1.121   
  10.99     0.4692E-1   1.126     0.1636E-2  0.9751     0.4692E-1   1.126   
  11.01     0.5177E-1   1.131     0.1605E-2  0.9754     0.5177E-1   1.131   
  11.02     0.5738E-1   1.137     0.1574E-2  0.9756     0.5738E-1   1.137   
  11.04     0.6391E-1   1.144     0.1544E-2  0.9759     0.6391E-1   1.144   
  11.05     0.7153E-1   1.150     0.1516E-2  0.9761     0.7153E-1   1.150   
  11.07     0.8049E-1   1.157     0.1488E-2  0.9763     0.8049E-1   1.157   
  11.08     0.9106E-1   1.165     0.1461E-2  0.9765     0.9106E-1   1.165   
  11.10     0.1036      1.172     0.1435E-2  0.9767     0.1036      1.172   
  11.11     0.1186      1.179     0.1410E-2  0.9770     0.1186      1.179   
  11.13     0.1364      1.186     0.1386E-2  0.9772     0.1364      1.186   
  11.14     0.1577      1.192     0.1363E-2  0.9774     0.1577      1.192   
  11.16     0.1830      1.195     0.1340E-2  0.9776     0.1830      1.195   
  11.17     0.2126      1.195     0.1318E-2  0.9778     0.2126      1.195   
  11.19     0.2465      1.189     0.1296E-2  0.9780     0.2465      1.189   
  11.20     0.2836      1.175     0.1276E-2  0.9782     0.2836      1.175   
  11.22     0.3217      1.151     0.1255E-2  0.9783     0.3217      1.151   
  11.23     0.3563      1.114     0.1236E-2  0.9785     0.3564      1.114   
  11.25     0.3818      1.065     0.1217E-2  0.9787     0.3818      1.065   
  11.26     0.3927      1.007     0.1198E-2  0.9789     0.3927      1.007   
  11.28     0.3862     0.9493     0.1180E-2  0.9791     0.3862     0.9493   
  11.29     0.3641     0.8976     0.1163E-2  0.9792     0.3641     0.8976   
  11.31     0.3313     0.8571     0.1146E-2  0.9794     0.3313     0.8571   
  11.32     0.2936     0.8292     0.1130E-2  0.9796     0.2936     0.8292   
  11.34     0.2559     0.8128     0.1113E-2  0.9798     0.2559     0.8128   
  11.35     0.2210     0.8051     0.1098E-2  0.9799     0.2210     0.8051   
  11.37     0.1903     0.8037     0.1083E-2  0.9801     0.1903     0.8037   
  11.38     0.1639     0.8064     0.1068E-2  0.9802     0.1639     0.8064   
  11.40     0.1416     0.8115     0.1054E-2  0.9804     0.1416     0.8115   
  11.41     0.1229     0.8180     0.1040E-2  0.9806     0.1229     0.8180   
  11.43     0.1072     0.8252     0.1026E-2  0.9807     0.1072     0.8252   
  11.44     0.9407E-1  0.8326     0.1013E-2  0.9809     0.9407E-1  0.8326   
  11.46     0.8300E-1  0.8400     0.9998E-3  0.9810     0.8300E-1  0.8400   
  11.47     0.7364E-1  0.8471     0.9872E-3  0.9812     0.7364E-1  0.8471   
  11.49     0.6568E-1  0.8538     0.9750E-3  0.9813     0.6568E-1  0.8538   
  11.50     0.5888E-1  0.8602     0.9630E-3  0.9815     0.5888E-1  0.8602   
  11.52     0.5303E-1  0.8663     0.9514E-3  0.9816     0.5303E-1  0.8663   
  11.53     0.4798E-1  0.8719     0.9401E-3  0.9817     0.4798E-1  0.8719   
  11.55     0.4359E-1  0.8772     0.9291E-3  0.9819     0.4359E-1  0.8772   
  11.56     0.3976E-1  0.8821     0.9183E-3  0.9820     0.3976E-1  0.8821   
  11.58     0.3640E-1  0.8868     0.9078E-3  0.9822     0.3640E-1  0.8868   
  11.59     0.3344E-1  0.8911     0.8976E-3  0.9823     0.3344E-1  0.8911   
  11.61     0.3081E-1  0.8951     0.8877E-3  0.9824     0.3081E-1  0.8951   
  11.62     0.2848E-1  0.8989     0.8780E-3  0.9826     0.2848E-1  0.8989   
  11.64     0.2640E-1  0.9025     0.8686E-3  0.9827     0.2640E-1  0.9025   
  11.65     0.2453E-1  0.9058     0.8594E-3  0.9828     0.2453E-1  0.9058   
  11.67     0.2285E-1  0.9089     0.8504E-3  0.9829     0.2285E-1  0.9089   
  11.68     0.2134E-1  0.9119     0.8417E-3  0.9831     0.2134E-1  0.9119   
  11.70     0.1997E-1  0.9147     0.8332E-3  0.9832     0.1997E-1  0.9147   
  11.71     0.1873E-1  0.9173     0.8249E-3  0.9833     0.1873E-1  0.9173   
  11.73     0.1760E-1  0.9198     0.8169E-3  0.9834     0.1760E-1  0.9198   
  11.74     0.1656E-1  0.9221     0.8091E-3  0.9836     0.1656E-1  0.9221   
  11.76     0.1562E-1  0.9244     0.8015E-3  0.9837     0.1562E-1  0.9244   
  11.77     0.1475E-1  0.9265     0.7941E-3  0.9838     0.1475E-1  0.9265   
  11.79     0.1396E-1  0.9285     0.7869E-3  0.9839     0.1396E-1  0.9285   
  11.80     0.1322E-1  0.9304     0.7799E-3  0.9840     0.1322E-1  0.9304   
  11.82     0.1254E-1  0.9322     0.7731E-3  0.9842     0.1254E-1  0.9322   
  11.83     0.1192E-1  0.9339     0.7665E-3  0.9843     0.1192E-1  0.9339   
  11.85     0.1134E-1  0.9356     0.7601E-3  0.9844     0.1134E-1  0.9356   
  11.86     0.1080E-1  0.9371     0.7539E-3  0.9845     0.1080E-1  0.9371   
  11.88     0.1030E-1  0.9386     0.7479E-3  0.9846     0.1030E-1  0.9386   
  11.89     0.9828E-2  0.9401     0.7421E-3  0.9847     0.9828E-2  0.9401   
  11.91     0.9392E-2  0.9415     0.7365E-3  0.9848     0.9392E-2  0.9415   
  11.92     0.8985E-2  0.9428     0.7311E-3  0.9849     0.8985E-2  0.9428   
  11.94     0.8604E-2  0.9440     0.7258E-3  0.9851     0.8604E-2  0.9440   
  11.95     0.8247E-2  0.9453     0.7208E-3  0.9852     0.8247E-2  0.9453   
  11.97     0.7911E-2  0.9464     0.7159E-3  0.9853     0.7911E-2  0.9464   
  11.98     0.7596E-2  0.9475     0.7112E-3  0.9854     0.7596E-2  0.9475   
  12.00     0.7300E-2  0.9486     0.7067E-3  0.9855     0.7300E-2  0.9486   
# 
# 04/03/2015 at 11:17 YAMBO @ anomaly [start]
# 04/03/2015 at 11:18                 [end]
#  
# Timing   [Min/Max/Average]: 47s/47s/47s
#
# .-Input file : Inputs/03_alda_rspace_cpl
# | optics                       # [R OPT] Optics
# | bse                          # [R BSE] Bethe Salpeter Equation.
# | bsk                          # [R BSK] Bethe Salpeter Equation kernel
# | bss                          # [R BSS] Bethe Salpeter Equation solver
# | tddft                        # [R   K] Use TDDFT kernel
# | BoseTemp= 0.000000     eV    # Bosonic Temperature
# | BS_CPU= ""                   # [PARALLEL] CPUs for each role
# | BS_ROLEs= ""                 # [PARALLEL] CPUs roles (k,eh,t)
# | BS_nCPU_invert= 1            # [PARALLEL] CPUs for matrix inversion
# | BS_nCPU_diago= 1             # [PARALLEL] CPUs for matrix diagonalization
# | X_Threads=0                  # [OPENMP/X] Number of threads for response functions
# | DIP_Threads=0                # [OPENMP/X] Number of threads for dipoles
# | BSEmod= "xc_coupling"        # [BSE] resonant/causal/x_coupling/xc_coupling
# | BSKmod= "ALDA"               # [BSE] IP/Hartree/HF/ALDA/SEX
# | BSSmod= "h"                  # [BSS] (h)aydock/(d)iagonalization/(i)nversion/(t)ddft`
# | BSENGexx=  50301       RL    # [BSK] Exchange components
# | % BEnRange
# |   6.00000 | 12.00000 | eV    # [BSS] Energy range
# | %
# | % BDmRange
# |   0.10000 |  0.10000 | eV    # [BSS] Damping range
# | %
# | BEnSteps=  400               # [BSS] Energy steps
# | % BLongDir
# | 0.1000E-4 | 0.000    | 0.000    |        # [BSS] [cc] Electric Field
# | %
# | % BSEBands
# |    1 |  40 |                 # [BSK] Bands range
# | %
# | BSHayTrs=0.1000E-2           # [BSS] [o/o] Haydock treshold. Strict(>0)/Average(<0)
