#                                                           
# Y88b    /   e           e    e      888~~\    ,88~-_      
#  Y88b  /   d8b         d8b  d8b     888   |  d888   \     
#   Y88b/   /Y88b       d888bdY88b    888 _/  88888    |    
#    Y8Y   /  Y88b     / Y88Y Y888b   888  \  88888    |    
#     Y   /____Y88b   /   YY   Y888b  888   |  Y888   /     
#    /   /      Y88b /          Y888b 888__/    `88_-~      
#                                                           
#            GPL Version 4.0.0 Revision 4281                
#                    MPI+OpenMP Build                       
#               http://www.yambo-code.org                   
#
# Reflectivity @ Q(1) [q->0 direction] :0.1000E-4  0.000     0.000   
#
#
# - Energies      are +Vosko, Wilk & Nusair (VWN5_RPA)(C)+Scissor
# - Wavefunctions are +Vosko, Wilk & Nusair (VWN5_RPA)(C)
#
# - The Green`s function is resonant -
# - Using the Length Gauge -
# - [r,Vnl] is *NOT* included -
#
#   BSK|Identifier              :5859
#      |Dimension               :136
#      |Bands                   :1 - 38
#      |Exchange           [res]: yes
#      |Correlation        [res]: yes
#      |Kernel`s coupling       : no
#      |Exchange           [cpl]: no
#      |W interaction is bare   : no
#      |Correlation        [cpl]: no
#      |ALDA kernel in R-space  : no
#      |RL vectors    [exchange]:20005
#      |RL vectors [correlation]:437
#      |E/h energy range    [ev]:-1.000000 - -1.000000
#      |Coupling range     [o/o]: 100.0000 -  100.0000
#    W |Interaction is diagonal : no
#      |Matrix size             :437
#      |Bands                   :1 - 40
#      |e/h energy range    [ev]:-1.000000 - -1.000000
#      |Poles              [o/o]: 100.0000
#      |Rl vectors in the sum   :90447
#      |[r,Vnl] included        : no
#      |Field direction         :0.1000E-4  0.000000  0.000000
#      |Coulomb Cutoff          :none
#      |xc-Kernel               :none
#   RIM|RL components      [col]:0
#      |Random points      [col]:0
#  
#   Haydock|Accuracy (requested) [o/o]:0.1000E-2
#          |Accuracy (reached)   [o/o]:0.7686E-3
#          |Iteration                 :50
#
#  E/ev[1]    eel /Im[2] eel /Re[3] eel0/Im[4] eel0/Re[5] eel`/Im[6] eel`/Re[7]
#
  6.000     0.4035E-5  -.9810     0.9577E-6  -.9892     0.4035E-5  -.9810   
  6.020     0.3615E-3  -.9809     0.8603E-4  -.9892     0.3615E-3  -.9809   
  6.040     0.3692E-3  -.9810     0.8738E-4  -.9892     0.3692E-3  -.9810   
  6.060     0.3739E-3  -.9810     0.8799E-4  -.9892     0.3739E-3  -.9810   
  6.080     0.3786E-3  -.9809     0.8859E-4  -.9892     0.3786E-3  -.9809   
  6.100     0.3833E-3  -.9809     0.8918E-4  -.9892     0.3833E-3  -.9809   
  6.120     0.3881E-3  -.9808     0.8977E-4  -.9892     0.3881E-3  -.9808   
  6.140     0.3929E-3  -.9807     0.9037E-4  -.9891     0.3929E-3  -.9807   
  6.160     0.3978E-3  -.9807     0.9097E-4  -.9891     0.3978E-3  -.9807   
  6.180     0.4029E-3  -.9806     0.9157E-4  -.9891     0.4029E-3  -.9806   
  6.200     0.4080E-3  -.9805     0.9218E-4  -.9891     0.4080E-3  -.9805   
  6.220     0.4132E-3  -.9805     0.9279E-4  -.9891     0.4132E-3  -.9805   
  6.240     0.4185E-3  -.9804     0.9341E-4  -.9891     0.4185E-3  -.9804   
  6.261     0.4239E-3  -.9803     0.9403E-4  -.9890     0.4239E-3  -.9803   
  6.281     0.4293E-3  -.9802     0.9465E-4  -.9890     0.4293E-3  -.9802   
  6.301     0.4349E-3  -.9802     0.9528E-4  -.9890     0.4349E-3  -.9802   
  6.321     0.4407E-3  -.9801     0.9592E-4  -.9890     0.4407E-3  -.9801   
  6.341     0.4465E-3  -.9800     0.9656E-4  -.9890     0.4465E-3  -.9800   
  6.361     0.4524E-3  -.9799     0.9720E-4  -.9890     0.4524E-3  -.9799   
  6.381     0.4585E-3  -.9798     0.9785E-4  -.9889     0.4585E-3  -.9798   
  6.401     0.4646E-3  -.9797     0.9850E-4  -.9889     0.4646E-3  -.9797   
  6.421     0.4709E-3  -.9796     0.9916E-4  -.9889     0.4709E-3  -.9796   
  6.441     0.4774E-3  -.9796     0.9982E-4  -.9889     0.4774E-3  -.9796   
  6.461     0.4839E-3  -.9795     0.1005E-3  -.9889     0.4839E-3  -.9795   
  6.481     0.4906E-3  -.9794     0.1012E-3  -.9888     0.4906E-3  -.9794   
  6.501     0.4974E-3  -.9793     0.1018E-3  -.9888     0.4974E-3  -.9793   
  6.521     0.5044E-3  -.9792     0.1025E-3  -.9888     0.5044E-3  -.9792   
  6.541     0.5115E-3  -.9791     0.1032E-3  -.9888     0.5115E-3  -.9791   
  6.561     0.5188E-3  -.9790     0.1039E-3  -.9888     0.5188E-3  -.9790   
  6.581     0.5262E-3  -.9789     0.1046E-3  -.9887     0.5262E-3  -.9789   
  6.601     0.5338E-3  -.9788     0.1053E-3  -.9887     0.5338E-3  -.9788   
  6.621     0.5416E-3  -.9787     0.1060E-3  -.9887     0.5416E-3  -.9787   
  6.641     0.5495E-3  -.9786     0.1068E-3  -.9887     0.5495E-3  -.9786   
  6.661     0.5576E-3  -.9785     0.1075E-3  -.9887     0.5576E-3  -.9785   
  6.681     0.5659E-3  -.9783     0.1082E-3  -.9886     0.5659E-3  -.9783   
  6.701     0.5744E-3  -.9782     0.1090E-3  -.9886     0.5744E-3  -.9782   
  6.721     0.5831E-3  -.9781     0.1097E-3  -.9886     0.5831E-3  -.9781   
  6.741     0.5920E-3  -.9780     0.1104E-3  -.9886     0.5920E-3  -.9780   
  6.762     0.6011E-3  -.9779     0.1112E-3  -.9886     0.6011E-3  -.9779   
  6.782     0.6104E-3  -.9778     0.1120E-3  -.9885     0.6104E-3  -.9778   
  6.802     0.6200E-3  -.9776     0.1127E-3  -.9885     0.6200E-3  -.9776   
  6.822     0.6297E-3  -.9775     0.1135E-3  -.9885     0.6297E-3  -.9775   
  6.842     0.6397E-3  -.9774     0.1143E-3  -.9885     0.6397E-3  -.9774   
  6.862     0.6500E-3  -.9773     0.1151E-3  -.9885     0.6500E-3  -.9773   
  6.882     0.6605E-3  -.9771     0.1159E-3  -.9884     0.6605E-3  -.9771   
  6.902     0.6713E-3  -.9770     0.1167E-3  -.9884     0.6713E-3  -.9770   
  6.922     0.6824E-3  -.9769     0.1175E-3  -.9884     0.6824E-3  -.9769   
  6.942     0.6937E-3  -.9767     0.1183E-3  -.9884     0.6937E-3  -.9767   
  6.962     0.7053E-3  -.9766     0.1191E-3  -.9883     0.7054E-3  -.9766   
  6.982     0.7173E-3  -.9765     0.1199E-3  -.9883     0.7173E-3  -.9765   
  7.002     0.7296E-3  -.9763     0.1208E-3  -.9883     0.7296E-3  -.9763   
  7.022     0.7422E-3  -.9762     0.1216E-3  -.9883     0.7422E-3  -.9762   
  7.042     0.7552E-3  -.9760     0.1225E-3  -.9882     0.7552E-3  -.9760   
  7.062     0.7685E-3  -.9759     0.1233E-3  -.9882     0.7685E-3  -.9759   
  7.082     0.7822E-3  -.9757     0.1242E-3  -.9882     0.7822E-3  -.9757   
  7.102     0.7963E-3  -.9756     0.1251E-3  -.9882     0.7963E-3  -.9756   
  7.122     0.8108E-3  -.9754     0.1260E-3  -.9881     0.8108E-3  -.9754   
  7.142     0.8258E-3  -.9752     0.1269E-3  -.9881     0.8258E-3  -.9752   
  7.162     0.8412E-3  -.9751     0.1278E-3  -.9881     0.8412E-3  -.9751   
  7.182     0.8570E-3  -.9749     0.1287E-3  -.9881     0.8570E-3  -.9749   
  7.202     0.8734E-3  -.9747     0.1296E-3  -.9880     0.8734E-3  -.9747   
  7.222     0.8903E-3  -.9746     0.1305E-3  -.9880     0.8903E-3  -.9746   
  7.242     0.9077E-3  -.9744     0.1314E-3  -.9880     0.9077E-3  -.9744   
  7.263     0.9257E-3  -.9742     0.1324E-3  -.9880     0.9257E-3  -.9742   
  7.283     0.9444E-3  -.9740     0.1333E-3  -.9879     0.9444E-3  -.9740   
  7.303     0.9637E-3  -.9738     0.1343E-3  -.9879     0.9637E-3  -.9738   
  7.323     0.9837E-3  -.9736     0.1352E-3  -.9879     0.9837E-3  -.9736   
  7.343     0.1004E-2  -.9734     0.1362E-3  -.9879     0.1004E-2  -.9734   
  7.363     0.1026E-2  -.9732     0.1372E-3  -.9878     0.1026E-2  -.9732   
  7.383     0.1048E-2  -.9730     0.1382E-3  -.9878     0.1048E-2  -.9730   
  7.403     0.1072E-2  -.9728     0.1392E-3  -.9878     0.1072E-2  -.9728   
  7.423     0.1096E-2  -.9726     0.1402E-3  -.9878     0.1096E-2  -.9726   
  7.443     0.1122E-2  -.9724     0.1412E-3  -.9877     0.1122E-2  -.9724   
  7.463     0.1148E-2  -.9722     0.1423E-3  -.9877     0.1148E-2  -.9722   
  7.483     0.1175E-2  -.9719     0.1433E-3  -.9877     0.1175E-2  -.9719   
  7.503     0.1203E-2  -.9717     0.1443E-3  -.9876     0.1203E-2  -.9717   
  7.523     0.1232E-2  -.9715     0.1454E-3  -.9876     0.1232E-2  -.9715   
  7.543     0.1261E-2  -.9712     0.1465E-3  -.9876     0.1261E-2  -.9712   
  7.563     0.1292E-2  -.9710     0.1476E-3  -.9876     0.1292E-2  -.9710   
  7.583     0.1324E-2  -.9707     0.1486E-3  -.9875     0.1324E-2  -.9707   
  7.603     0.1359E-2  -.9705     0.1498E-3  -.9875     0.1359E-2  -.9705   
  7.623     0.1396E-2  -.9702     0.1509E-3  -.9875     0.1396E-2  -.9702   
  7.643     0.1436E-2  -.9699     0.1520E-3  -.9874     0.1436E-2  -.9699   
  7.663     0.1478E-2  -.9696     0.1531E-3  -.9874     0.1478E-2  -.9696   
  7.683     0.1523E-2  -.9694     0.1543E-3  -.9874     0.1523E-2  -.9694   
  7.703     0.1569E-2  -.9691     0.1554E-3  -.9874     0.1569E-2  -.9691   
  7.723     0.1615E-2  -.9688     0.1566E-3  -.9873     0.1615E-2  -.9688   
  7.743     0.1659E-2  -.9685     0.1578E-3  -.9873     0.1659E-2  -.9685   
  7.764     0.1700E-2  -.9682     0.1590E-3  -.9873     0.1700E-2  -.9682   
  7.784     0.1741E-2  -.9678     0.1602E-3  -.9872     0.1741E-2  -.9678   
  7.804     0.1784E-2  -.9675     0.1614E-3  -.9872     0.1784E-2  -.9675   
  7.824     0.1829E-2  -.9672     0.1626E-3  -.9872     0.1829E-2  -.9672   
  7.844     0.1878E-2  -.9668     0.1639E-3  -.9871     0.1878E-2  -.9668   
  7.864     0.1932E-2  -.9664     0.1651E-3  -.9871     0.1932E-2  -.9664   
  7.884     0.1989E-2  -.9660     0.1664E-3  -.9871     0.1989E-2  -.9660   
  7.904     0.2051E-2  -.9656     0.1677E-3  -.9870     0.2051E-2  -.9656   
  7.924     0.2117E-2  -.9652     0.1690E-3  -.9870     0.2117E-2  -.9652   
  7.944     0.2188E-2  -.9648     0.1703E-3  -.9870     0.2188E-2  -.9648   
  7.964     0.2264E-2  -.9644     0.1716E-3  -.9869     0.2264E-2  -.9644   
  7.984     0.2345E-2  -.9639     0.1729E-3  -.9869     0.2345E-2  -.9639   
  8.004     0.2431E-2  -.9635     0.1743E-3  -.9869     0.2431E-2  -.9635   
  8.024     0.2524E-2  -.9630     0.1756E-3  -.9868     0.2524E-2  -.9630   
  8.044     0.2624E-2  -.9625     0.1770E-3  -.9868     0.2624E-2  -.9625   
  8.064     0.2731E-2  -.9620     0.1784E-3  -.9868     0.2731E-2  -.9620   
  8.084     0.2847E-2  -.9614     0.1798E-3  -.9867     0.2847E-2  -.9614   
  8.104     0.2971E-2  -.9608     0.1813E-3  -.9867     0.2971E-2  -.9608   
  8.124     0.3107E-2  -.9603     0.1827E-3  -.9867     0.3107E-2  -.9603   
  8.144     0.3254E-2  -.9596     0.1841E-3  -.9866     0.3254E-2  -.9596   
  8.164     0.3415E-2  -.9590     0.1856E-3  -.9866     0.3415E-2  -.9590   
  8.184     0.3591E-2  -.9583     0.1871E-3  -.9865     0.3591E-2  -.9583   
  8.204     0.3785E-2  -.9576     0.1886E-3  -.9865     0.3785E-2  -.9576   
  8.224     0.3999E-2  -.9569     0.1901E-3  -.9865     0.3999E-2  -.9569   
  8.244     0.4238E-2  -.9561     0.1917E-3  -.9864     0.4238E-2  -.9561   
  8.265     0.4506E-2  -.9553     0.1932E-3  -.9864     0.4506E-2  -.9553   
  8.285     0.4807E-2  -.9544     0.1948E-3  -.9864     0.4807E-2  -.9544   
  8.305     0.5149E-2  -.9535     0.1964E-3  -.9863     0.5149E-2  -.9535   
  8.325     0.5540E-2  -.9525     0.1980E-3  -.9863     0.5540E-2  -.9525   
  8.345     0.5992E-2  -.9515     0.1996E-3  -.9862     0.5992E-2  -.9515   
  8.365     0.6518E-2  -.9504     0.2013E-3  -.9862     0.6518E-2  -.9504   
  8.385     0.7138E-2  -.9493     0.2029E-3  -.9862     0.7138E-2  -.9493   
  8.405     0.7876E-2  -.9481     0.2046E-3  -.9861     0.7876E-2  -.9481   
  8.425     0.8765E-2  -.9468     0.2063E-3  -.9861     0.8765E-2  -.9468   
  8.445     0.9846E-2  -.9455     0.2080E-3  -.9860     0.9846E-2  -.9455   
  8.465     0.1117E-1  -.9441     0.2098E-3  -.9860     0.1117E-1  -.9441   
  8.485     0.1281E-1  -.9428     0.2115E-3  -.9860     0.1281E-1  -.9428   
  8.505     0.1482E-1  -.9416     0.2133E-3  -.9859     0.1482E-1  -.9416   
  8.525     0.1725E-1  -.9407     0.2151E-3  -.9859     0.1725E-1  -.9407   
  8.545     0.2006E-1  -.9404     0.2169E-3  -.9858     0.2006E-1  -.9404   
  8.565     0.2302E-1  -.9409     0.2188E-3  -.9858     0.2302E-1  -.9409   
  8.585     0.2568E-1  -.9423     0.2206E-3  -.9857     0.2568E-1  -.9423   
  8.605     0.2753E-1  -.9443     0.2225E-3  -.9857     0.2753E-1  -.9443   
  8.625     0.2831E-1  -.9466     0.2244E-3  -.9857     0.2831E-1  -.9466   
  8.645     0.2821E-1  -.9486     0.2264E-3  -.9856     0.2821E-1  -.9486   
  8.665     0.2754E-1  -.9502     0.2283E-3  -.9856     0.2754E-1  -.9502   
  8.685     0.2644E-1  -.9513     0.2303E-3  -.9855     0.2644E-1  -.9513   
  8.705     0.2495E-1  -.9518     0.2323E-3  -.9855     0.2495E-1  -.9518   
  8.725     0.2323E-1  -.9516     0.2344E-3  -.9854     0.2323E-1  -.9516   
  8.745     0.2155E-1  -.9506     0.2364E-3  -.9854     0.2155E-1  -.9506   
  8.766     0.2015E-1  -.9490     0.2385E-3  -.9853     0.2015E-1  -.9490   
  8.786     0.1916E-1  -.9469     0.2406E-3  -.9853     0.1916E-1  -.9469   
  8.806     0.1859E-1  -.9445     0.2428E-3  -.9852     0.1859E-1  -.9445   
  8.826     0.1843E-1  -.9418     0.2449E-3  -.9852     0.1843E-1  -.9418   
  8.846     0.1863E-1  -.9389     0.2471E-3  -.9851     0.1863E-1  -.9389   
  8.866     0.1918E-1  -.9358     0.2493E-3  -.9851     0.1918E-1  -.9358   
  8.886     0.2008E-1  -.9326     0.2516E-3  -.9850     0.2008E-1  -.9326   
  8.906     0.2132E-1  -.9291     0.2538E-3  -.9850     0.2132E-1  -.9291   
  8.926     0.2293E-1  -.9255     0.2561E-3  -.9849     0.2293E-1  -.9255   
  8.946     0.2497E-1  -.9215     0.2585E-3  -.9849     0.2497E-1  -.9215   
  8.966     0.2751E-1  -.9173     0.2608E-3  -.9848     0.2751E-1  -.9173   
  8.986     0.3064E-1  -.9128     0.2632E-3  -.9848     0.3064E-1  -.9128   
  9.006     0.3451E-1  -.9080     0.2657E-3  -.9847     0.3451E-1  -.9080   
  9.026     0.3929E-1  -.9028     0.2681E-3  -.9847     0.3929E-1  -.9028   
  9.046     0.4524E-1  -.8972     0.2706E-3  -.9846     0.4524E-1  -.8972   
  9.066     0.5269E-1  -.8914     0.2731E-3  -.9846     0.5269E-1  -.8914   
  9.086     0.6208E-1  -.8855     0.2757E-3  -.9845     0.6208E-1  -.8855   
  9.106     0.7396E-1  -.8798     0.2783E-3  -.9845     0.7396E-1  -.8798   
  9.126     0.8901E-1  -.8750     0.2809E-3  -.9844     0.8901E-1  -.8750   
  9.146     0.1079     -.8723     0.2836E-3  -.9844     0.1079     -.8723   
  9.166     0.1311     -.8736     0.2863E-3  -.9843     0.1311     -.8736   
  9.186     0.1579     -.8814     0.2890E-3  -.9842     0.1579     -.8814   
  9.206     0.1858     -.8986     0.2918E-3  -.9842     0.1858     -.8986   
  9.226     0.2095     -.9272     0.2946E-3  -.9841     0.2095     -.9272   
  9.246     0.2226     -.9656     0.2975E-3  -.9841     0.2226     -.9656   
  9.267     0.2203     -1.007     0.3004E-3  -.9840     0.2203     -1.007   
  9.287     0.2035     -1.044     0.3033E-3  -.9840     0.2035     -1.044   
  9.307     0.1778     -1.071     0.3063E-3  -.9839     0.1778     -1.071   
  9.327     0.1498     -1.086     0.3093E-3  -.9838     0.1498     -1.086   
  9.347     0.1239     -1.091     0.3124E-3  -.9838     0.1239     -1.091   
  9.367     0.1019     -1.091     0.3155E-3  -.9837     0.1019     -1.091   
  9.387     0.8415E-1  -1.088     0.3186E-3  -.9836     0.8415E-1  -1.088   
  9.407     0.7002E-1  -1.083     0.3218E-3  -.9836     0.7002E-1  -1.083   
  9.427     0.5884E-1  -1.077     0.3250E-3  -.9835     0.5884E-1  -1.077   
  9.447     0.4997E-1  -1.071     0.3283E-3  -.9835     0.4997E-1  -1.071   
  9.467     0.4289E-1  -1.065     0.3317E-3  -.9834     0.4289E-1  -1.065   
  9.487     0.3719E-1  -1.060     0.3351E-3  -.9833     0.3719E-1  -1.060   
  9.507     0.3255E-1  -1.055     0.3385E-3  -.9833     0.3255E-1  -1.055   
  9.527     0.2874E-1  -1.050     0.3420E-3  -.9832     0.2874E-1  -1.050   
  9.547     0.2559E-1  -1.046     0.3455E-3  -.9831     0.2559E-1  -1.046   
  9.567     0.2296E-1  -1.042     0.3491E-3  -.9830     0.2296E-1  -1.042   
  9.587     0.2074E-1  -1.038     0.3528E-3  -.9830     0.2074E-1  -1.038   
  9.607     0.1887E-1  -1.035     0.3565E-3  -.9829     0.1887E-1  -1.035   
  9.627     0.1727E-1  -1.032     0.3603E-3  -.9828     0.1727E-1  -1.032   
  9.647     0.1591E-1  -1.029     0.3641E-3  -.9828     0.1591E-1  -1.029   
  9.667     0.1473E-1  -1.026     0.3680E-3  -.9827     0.1473E-1  -1.026   
  9.687     0.1371E-1  -1.023     0.3719E-3  -.9826     0.1371E-1  -1.023   
  9.707     0.1282E-1  -1.021     0.3759E-3  -.9825     0.1282E-1  -1.021   
  9.727     0.1206E-1  -1.019     0.3800E-3  -.9825     0.1206E-1  -1.019   
  9.747     0.1139E-1  -1.016     0.3841E-3  -.9824     0.1139E-1  -1.016   
  9.768     0.1080E-1  -1.014     0.3883E-3  -.9823     0.1080E-1  -1.014   
  9.788     0.1030E-1  -1.012     0.3926E-3  -.9822     0.1030E-1  -1.012   
  9.808     0.9854E-2  -1.010     0.3969E-3  -.9822     0.9854E-2  -1.010   
  9.828     0.9471E-2  -1.009     0.4013E-3  -.9821     0.9471E-2  -1.009   
  9.848     0.9140E-2  -1.007     0.4058E-3  -.9820     0.9140E-2  -1.007   
  9.868     0.8857E-2  -1.005     0.4104E-3  -.9819     0.8857E-2  -1.005   
  9.888     0.8618E-2  -1.003     0.4150E-3  -.9818     0.8618E-2  -1.003   
  9.908     0.8419E-2  -1.002     0.4197E-3  -.9818     0.8419E-2  -1.002   
  9.928     0.8257E-2  -1.000     0.4245E-3  -.9817     0.8257E-2  -1.000   
  9.948     0.8131E-2  -.9986     0.4294E-3  -.9816     0.8131E-2  -.9986   
  9.968     0.8040E-2  -.9970     0.4343E-3  -.9815     0.8040E-2  -.9970   
  9.988     0.7983E-2  -.9955     0.4393E-3  -.9814     0.7983E-2  -.9955   
  10.01     0.7960E-2  -.9940     0.4445E-3  -.9813     0.7960E-2  -.9940   
  10.03     0.7971E-2  -.9924     0.4497E-3  -.9812     0.7971E-2  -.9924   
  10.05     0.8018E-2  -.9909     0.4550E-3  -.9812     0.8018E-2  -.9909   
  10.07     0.8103E-2  -.9894     0.4604E-3  -.9811     0.8103E-2  -.9894   
  10.09     0.8230E-2  -.9878     0.4659E-3  -.9810     0.8230E-2  -.9878   
  10.11     0.8404E-2  -.9862     0.4714E-3  -.9809     0.8404E-2  -.9862   
  10.13     0.8630E-2  -.9847     0.4771E-3  -.9808     0.8629E-2  -.9847   
  10.15     0.8916E-2  -.9830     0.4829E-3  -.9807     0.8916E-2  -.9830   
  10.17     0.9275E-2  -.9814     0.4888E-3  -.9806     0.9275E-2  -.9814   
  10.19     0.9717E-2  -.9798     0.4948E-3  -.9805     0.9717E-2  -.9798   
  10.21     0.1026E-1  -.9781     0.5009E-3  -.9804     0.1026E-1  -.9781   
  10.23     0.1091E-1  -.9765     0.5072E-3  -.9803     0.1091E-1  -.9765   
  10.25     0.1166E-1  -.9749     0.5135E-3  -.9802     0.1167E-1  -.9749   
  10.27     0.1250E-1  -.9735     0.5200E-3  -.9801     0.1250E-1  -.9735   
  10.29     0.1332E-1  -.9722     0.5265E-3  -.9800     0.1332E-1  -.9722   
  10.31     0.1402E-1  -.9710     0.5332E-3  -.9799     0.1401E-1  -.9710   
  10.33     0.1450E-1  -.9697     0.5401E-3  -.9798     0.1450E-1  -.9697   
  10.35     0.1477E-1  -.9683     0.5470E-3  -.9797     0.1478E-1  -.9683   
  10.37     0.1497E-1  -.9667     0.5541E-3  -.9796     0.1498E-1  -.9667   
  10.39     0.1522E-1  -.9647     0.5614E-3  -.9794     0.1522E-1  -.9647   
  10.41     0.1561E-1  -.9624     0.5688E-3  -.9793     0.1560E-1  -.9624   
  10.43     0.1619E-1  -.9598     0.5763E-3  -.9792     0.1618E-1  -.9598   
  10.45     0.1698E-1  -.9571     0.5840E-3  -.9791     0.1698E-1  -.9571   
  10.47     0.1802E-1  -.9541     0.5918E-3  -.9790     0.1802E-1  -.9541   
  10.49     0.1931E-1  -.9509     0.5998E-3  -.9789     0.1931E-1  -.9509   
  10.51     0.2090E-1  -.9475     0.6079E-3  -.9788     0.2090E-1  -.9475   
  10.53     0.2282E-1  -.9438     0.6163E-3  -.9786     0.2282E-1  -.9438   
  10.55     0.2515E-1  -.9399     0.6248E-3  -.9785     0.2515E-1  -.9399   
  10.57     0.2795E-1  -.9356     0.6334E-3  -.9784     0.2796E-1  -.9356   
  10.59     0.3136E-1  -.9310     0.6423E-3  -.9783     0.3136E-1  -.9310   
  10.61     0.3552E-1  -.9261     0.6513E-3  -.9781     0.3553E-1  -.9261   
  10.63     0.4064E-1  -.9209     0.6606E-3  -.9780     0.4065E-1  -.9209   
  10.65     0.4699E-1  -.9153     0.6700E-3  -.9779     0.4699E-1  -.9153   
  10.67     0.5491E-1  -.9096     0.6796E-3  -.9777     0.5492E-1  -.9096   
  10.69     0.6486E-1  -.9041     0.6895E-3  -.9776     0.6487E-1  -.9041   
  10.71     0.7737E-1  -.8991     0.6995E-3  -.9775     0.7737E-1  -.8992   
  10.73     0.9294E-1  -.8958     0.7098E-3  -.9773     0.9294E-1  -.8958   
  10.75     0.1118     -.8954     0.7203E-3  -.9772     0.1118     -.8955   
  10.77     0.1334     -.9001     0.7310E-3  -.9770     0.1334     -.9001   
  10.79     0.1556     -.9118     0.7420E-3  -.9769     0.1555     -.9117   
  10.81     0.1742     -.9310     0.7533E-3  -.9767     0.1741     -.9309   
  10.83     0.1851     -.9556     0.7648E-3  -.9766     0.1852     -.9554   
  10.85     0.1873     -.9810     0.7766E-3  -.9764     0.1876     -.9809   
  10.87     0.1829     -1.003     0.7886E-3  -.9763     0.1833     -1.003   
  10.89     0.1752     -1.021     0.8009E-3  -.9761     0.1753     -1.021   
  10.91     0.1664     -1.034     0.8136E-3  -.9760     0.1659     -1.034   
  10.93     0.1576     -1.044     0.8265E-3  -.9758     0.1568     -1.044   
  10.95     0.1501     -1.051     0.8397E-3  -.9756     0.1497     -1.051   
  10.97     0.1446     -1.058     0.8533E-3  -.9755     0.1450     -1.057   
  10.99     0.1405     -1.066     0.8672E-3  -.9753     0.1412     -1.065   
  11.01     0.1355     -1.075     0.8814E-3  -.9751     0.1360     -1.076   
  11.03     0.1275     -1.085     0.8960E-3  -.9749     0.1275     -1.086   
  11.05     0.1165     -1.094     0.9110E-3  -.9748     0.1161     -1.094   
  11.07     0.1040     -1.100     0.9264E-3  -.9746     0.1036     -1.100   
  11.09     0.9167E-1  -1.103     0.9421E-3  -.9744     0.9154E-1  -1.102   
  11.11     0.8022E-1  -1.103     0.9583E-3  -.9742     0.8031E-1  -1.103   
  11.13     0.6969E-1  -1.103     0.9749E-3  -.9740     0.6984E-1  -1.103   
  11.15     0.6007E-1  -1.101     0.9920E-3  -.9738     0.6017E-1  -1.101   
  11.17     0.5151E-1  -1.098     0.1009E-2  -.9736     0.5156E-1  -1.098   
  11.19     0.4418E-1  -1.094     0.1027E-2  -.9734     0.4418E-1  -1.094   
  11.21     0.3805E-1  -1.090     0.1046E-2  -.9732     0.3805E-1  -1.090   
  11.23     0.3301E-1  -1.086     0.1065E-2  -.9730     0.3300E-1  -1.086   
  11.25     0.2888E-1  -1.082     0.1084E-2  -.9728     0.2887E-1  -1.082   
  11.27     0.2549E-1  -1.078     0.1104E-2  -.9726     0.2548E-1  -1.078   
  11.29     0.2268E-1  -1.074     0.1125E-2  -.9724     0.2267E-1  -1.074   
  11.31     0.2034E-1  -1.071     0.1146E-2  -.9721     0.2033E-1  -1.071   
  11.33     0.1836E-1  -1.067     0.1168E-2  -.9719     0.1836E-1  -1.067   
  11.35     0.1669E-1  -1.064     0.1191E-2  -.9717     0.1669E-1  -1.064   
  11.37     0.1527E-1  -1.062     0.1214E-2  -.9714     0.1527E-1  -1.062   
  11.39     0.1404E-1  -1.059     0.1238E-2  -.9712     0.1404E-1  -1.059   
  11.41     0.1299E-1  -1.057     0.1262E-2  -.9709     0.1299E-1  -1.057   
  11.43     0.1207E-1  -1.054     0.1288E-2  -.9707     0.1207E-1  -1.054   
  11.45     0.1127E-1  -1.052     0.1314E-2  -.9704     0.1127E-1  -1.052   
  11.47     0.1058E-1  -1.050     0.1341E-2  -.9702     0.1058E-1  -1.050   
  11.49     0.9977E-2  -1.048     0.1368E-2  -.9699     0.9978E-2  -1.048   
  11.51     0.9454E-2  -1.046     0.1397E-2  -.9696     0.9456E-2  -1.046   
  11.53     0.9005E-2  -1.045     0.1427E-2  -.9693     0.9007E-2  -1.045   
  11.55     0.8623E-2  -1.043     0.1457E-2  -.9691     0.8626E-2  -1.043   
  11.57     0.8307E-2  -1.042     0.1489E-2  -.9688     0.8310E-2  -1.042   
  11.59     0.8054E-2  -1.040     0.1522E-2  -.9685     0.8059E-2  -1.040   
  11.61     0.7868E-2  -1.039     0.1556E-2  -.9682     0.7875E-2  -1.039   
  11.63     0.7752E-2  -1.037     0.1591E-2  -.9678     0.7761E-2  -1.037   
  11.65     0.7714E-2  -1.036     0.1627E-2  -.9675     0.7724E-2  -1.036   
  11.67     0.7764E-2  -1.034     0.1664E-2  -.9672     0.7775E-2  -1.034   
  11.69     0.7916E-2  -1.033     0.1703E-2  -.9669     0.7923E-2  -1.033   
  11.71     0.8180E-2  -1.032     0.1744E-2  -.9665     0.8175E-2  -1.032   
  11.73     0.8559E-2  -1.031     0.1785E-2  -.9662     0.8525E-2  -1.031   
  11.75     0.9033E-2  -1.030     0.1829E-2  -.9658     0.8954E-2  -1.030   
  11.77     0.9549E-2  -1.030     0.1874E-2  -.9655     0.9437E-2  -1.029   
  11.79     0.1004E-1  -1.029     0.1921E-2  -.9651     0.9958E-2  -1.029   
  11.81     0.1045E-1  -1.029     0.1969E-2  -.9647     0.1050E-1  -1.029   
  11.83     0.1077E-1  -1.029     0.2020E-2  -.9643     0.1098E-1  -1.029   
  11.85     0.1097E-1  -1.029     0.2073E-2  -.9639     0.1123E-1  -1.029   
  11.87     0.1093E-1  -1.029     0.2127E-2  -.9635     0.1108E-1  -1.029   
  11.89     0.1056E-1  -1.029     0.2185E-2  -.9631     0.1052E-1  -1.030   
  11.91     0.9873E-2  -1.029     0.2244E-2  -.9626     0.9690E-2  -1.030   
  11.93     0.9033E-2  -1.029     0.2306E-2  -.9622     0.8804E-2  -1.029   
  11.95     0.8204E-2  -1.029     0.2371E-2  -.9617     0.8011E-2  -1.029   
  11.97     0.7487E-2  -1.028     0.2439E-2  -.9612     0.7371E-2  -1.028   
  11.99     0.6920E-2  -1.027     0.2510E-2  -.9607     0.6897E-2  -1.027   
  12.01     0.6503E-2  -1.026     0.2584E-2  -.9602     0.6576E-2  -1.026   
  12.03     0.6224E-2  -1.025     0.2661E-2  -.9597     0.6385E-2  -1.025   
  12.05     0.6068E-2  -1.025     0.2743E-2  -.9592     0.6292E-2  -1.025   
  12.07     0.6019E-2  -1.024     0.2828E-2  -.9586     0.6251E-2  -1.024   
  12.09     0.6049E-2  -1.023     0.2918E-2  -.9581     0.6206E-2  -1.023   
  12.11     0.6119E-2  -1.022     0.3012E-2  -.9575     0.6119E-2  -1.023   
  12.13     0.6171E-2  -1.022     0.3111E-2  -.9569     0.5996E-2  -1.022   
  12.15     0.6164E-2  -1.021     0.3215E-2  -.9563     0.5879E-2  -1.021   
  12.17     0.6101E-2  -1.021     0.3325E-2  -.9556     0.5819E-2  -1.021   
  12.19     0.6033E-2  -1.020     0.3441E-2  -.9550     0.5847E-2  -1.020   
  12.21     0.6016E-2  -1.020     0.3563E-2  -.9543     0.5979E-2  -1.019   
  12.23     0.6090E-2  -1.019     0.3693E-2  -.9535     0.6211E-2  -1.019   
  12.25     0.6266E-2  -1.018     0.3830E-2  -.9528     0.6514E-2  -1.018   
  12.27     0.6527E-2  -1.018     0.3976E-2  -.9520     0.6821E-2  -1.018   
  12.29     0.6817E-2  -1.017     0.4131E-2  -.9513     0.7043E-2  -1.017   
  12.31     0.7055E-2  -1.017     0.4296E-2  -.9504     0.7120E-2  -1.017   
  12.33     0.7179E-2  -1.017     0.4471E-2  -.9496     0.7074E-2  -1.017   
  12.35     0.7200E-2  -1.016     0.4658E-2  -.9487     0.6996E-2  -1.016   
  12.37     0.7199E-2  -1.016     0.4859E-2  -.9478     0.6986E-2  -1.016   
  12.39     0.7276E-2  -1.015     0.5073E-2  -.9468     0.7115E-2  -1.015   
  12.41     0.7504E-2  -1.014     0.5304E-2  -.9458     0.7424E-2  -1.014   
  12.43     0.7925E-2  -1.014     0.5552E-2  -.9447     0.7932E-2  -1.014   
  12.45     0.8550E-2  -1.013     0.5819E-2  -.9436     0.8638E-2  -1.013   
  12.47     0.9342E-2  -1.013     0.6109E-2  -.9425     0.9489E-2  -1.013   
  12.49     0.1019E-1  -1.013     0.6422E-2  -.9413     0.1035E-1  -1.013   
  12.51     0.1089E-1  -1.013     0.6763E-2  -.9400     0.1101E-1  -1.013   
  12.53     0.1122E-1  -1.014     0.7135E-2  -.9387     0.1125E-1  -1.014   
  12.55     0.1111E-1  -1.014     0.7542E-2  -.9373     0.1104E-1  -1.014   
  12.57     0.1068E-1  -1.014     0.7989E-2  -.9358     0.1057E-1  -1.015   
  12.59     0.1019E-1  -1.014     0.8482E-2  -.9342     0.1008E-1  -1.014   
  12.61     0.9825E-2  -1.014     0.9029E-2  -.9326     0.9751E-2  -1.014   
  12.63     0.9702E-2  -1.013     0.9637E-2  -.9308     0.9673E-2  -1.013   
  12.65     0.9833E-2  -1.013     0.1032E-1  -.9290     0.9848E-2  -1.013   
  12.67     0.1016E-1  -1.013     0.1108E-1  -.9270     0.1021E-1  -1.012   
  12.69     0.1054E-1  -1.012     0.1195E-1  -.9249     0.1060E-1  -1.012   
  12.71     0.1076E-1  -1.013     0.1294E-1  -.9226     0.1081E-1  -1.013   
  12.73     0.1067E-1  -1.013     0.1407E-1  -.9203     0.1070E-1  -1.013   
  12.75     0.1026E-1  -1.013     0.1539E-1  -.9177     0.1026E-1  -1.013   
  12.77     0.9690E-2  -1.013     0.1693E-1  -.9149     0.9673E-2  -1.013   
  12.79     0.9132E-2  -1.012     0.1875E-1  -.9120     0.9110E-2  -1.012   
  12.81     0.8706E-2  -1.011     0.2091E-1  -.9089     0.8686E-2  -1.011   
  12.83     0.8464E-2  -1.010     0.2352E-1  -.9056     0.8449E-2  -1.010   
  12.85     0.8419E-2  -1.009     0.2671E-1  -.9021     0.8409E-2  -1.009   
  12.87     0.8570E-2  -1.008     0.3062E-1  -.8986     0.8565E-2  -1.008   
  12.89     0.8921E-2  -1.007     0.3546E-1  -.8951     0.8921E-2  -1.007   
  12.91     0.9484E-2  -1.005     0.4143E-1  -.8920     0.9488E-2  -1.005   
  12.93     0.1028E-1  -1.004     0.4870E-1  -.8898     0.1029E-1  -1.004   
  12.95     0.1134E-1  -1.002     0.5717E-1  -.8891     0.1135E-1  -1.002   
  12.97     0.1269E-1  -1.001     0.6626E-1  -.8910     0.1271E-1  -1.001   
  12.99399    0.01437   -0.99986    0.07451   -0.89589    0.01438   -0.99987
  13.01403    0.01640   -0.99871    0.07989   -0.90332    0.01640   -0.99872
  13.03407    0.01880   -0.99773    0.08096   -0.91138    0.01879   -0.99775
  13.05411    0.02166   -0.99702    0.07813   -0.91759    0.02164   -0.99702
  13.07415    0.02506   -0.99676    0.07329   -0.92035    0.02504   -0.99676
  13.09419    0.02896   -0.99730    0.06844   -0.91953    0.02896   -0.99729
  13.11423    0.03306   -0.99897    0.06483   -0.91585    0.03307   -0.99896
  13.13427    0.03673   -1.00185    0.06300   -0.91019    0.03674   -1.00185
  13.15431    0.03937   -1.00557    0.06310   -0.90319    0.03938   -1.00557
  13.17435    0.04092   -1.00945    0.06515   -0.89525    0.04092   -1.00946
  13.19439    0.04189   -1.01313    0.06924   -0.88659    0.04189   -1.01314
  13.21443    0.04277   -1.01682    0.07555   -0.87738    0.04276   -1.01682
  13.23447    0.04349   -1.02098    0.08440   -0.86776    0.04349   -1.02098
  13.25451    0.04348   -1.02583    0.09631   -0.85798    0.04348   -1.02582
  13.27455    0.04211   -1.03104    0.11201   -0.84850    0.04211   -1.03104
  13.29459    0.03912   -1.03590    0.13242   -0.84017    0.03912   -1.03590
  13.31463    0.03483   -1.03965    0.15859   -0.83455    0.03483   -1.03965
  13.33467    0.02996   -1.04189    0.19124   -0.83414    0.02996   -1.04189
  13.35471    0.02524   -1.04271    0.22989   -0.84274    0.02524   -1.04271
  13.37475    0.02109   -1.04247    0.27113   -0.86502    0.02109   -1.04247
  13.39479    0.01764   -1.04159    0.30740   -0.90473    0.01764   -1.04159
  13.41483    0.01486   -1.04038    0.32821   -0.96046    0.01486   -1.04038
  13.43     0.1263E-1  -1.039     0.3258     -1.022     0.1263E-1  -1.039   
  13.45     0.1084E-1  -1.038     0.3012     -1.077     0.1084E-1  -1.038   
  13.47     0.9398E-2  -1.036     0.2635     -1.114     0.9398E-2  -1.036   
  13.49     0.8227E-2  -1.035     0.2232     -1.134     0.8227E-2  -1.035   
  13.52     0.7267E-2  -1.034     0.1868     -1.141     0.7267E-2  -1.034   
  13.54     0.6471E-2  -1.033     0.1567     -1.140     0.6471E-2  -1.033   
  13.56     0.5804E-2  -1.032     0.1330     -1.135     0.5804E-2  -1.032   
  13.58     0.5242E-2  -1.031     0.1145     -1.128     0.5242E-2  -1.031   
  13.60     0.4763E-2  -1.030     0.9988E-1  -1.121     0.4763E-2  -1.030   
  13.62     0.4352E-2  -1.029     0.8783E-1  -1.114     0.4352E-2  -1.029   
  13.64     0.3996E-2  -1.029     0.7752E-1  -1.107     0.3996E-2  -1.029   
  13.66     0.3687E-2  -1.028     0.6866E-1  -1.100     0.3687E-2  -1.028   
  13.68     0.3415E-2  -1.027     0.6125E-1  -1.093     0.3415E-2  -1.027   
  13.70     0.3176E-2  -1.027     0.5529E-1  -1.086     0.3176E-2  -1.027   
  13.72     0.2964E-2  -1.026     0.5074E-1  -1.079     0.2964E-2  -1.026   
  13.74     0.2776E-2  -1.026     0.4747E-1  -1.073     0.2776E-2  -1.026   
  13.76     0.2607E-2  -1.025     0.4541E-1  -1.067     0.2607E-2  -1.025   
  13.78     0.2455E-2  -1.025     0.4445E-1  -1.061     0.2455E-2  -1.025   
  13.80     0.2318E-2  -1.024     0.4447E-1  -1.057     0.2318E-2  -1.024   
  13.82     0.2194E-2  -1.024     0.4519E-1  -1.053     0.2194E-2  -1.024   
  13.84     0.2081E-2  -1.023     0.4608E-1  -1.051     0.2081E-2  -1.023   
  13.86     0.1978E-2  -1.023     0.4642E-1  -1.050     0.1978E-2  -1.023   
  13.88     0.1884E-2  -1.023     0.4564E-1  -1.050     0.1884E-2  -1.023   
  13.90     0.1798E-2  -1.022     0.4374E-1  -1.050     0.1798E-2  -1.022   
  13.92     0.1719E-2  -1.022     0.4122E-1  -1.049     0.1719E-2  -1.022   
  13.94     0.1645E-2  -1.021     0.3861E-1  -1.048     0.1645E-2  -1.021   
  13.96     0.1578E-2  -1.021     0.3617E-1  -1.045     0.1578E-2  -1.021   
  13.98     0.1515E-2  -1.021     0.3401E-1  -1.043     0.1515E-2  -1.021   
  14.00     0.1457E-2  -1.021     0.3221E-1  -1.040     0.1457E-2  -1.021   
  14.02     0.1403E-2  -1.020     0.3091E-1  -1.036     0.1403E-2  -1.020   
  14.04     0.1353E-2  -1.020     0.3023E-1  -1.033     0.1353E-2  -1.020   
  14.06     0.1306E-2  -1.020     0.3025E-1  -1.029     0.1306E-2  -1.020   
  14.08     0.1262E-2  -1.020     0.3104E-1  -1.025     0.1262E-2  -1.020   
  14.10     0.1221E-2  -1.019     0.3262E-1  -1.022     0.1221E-2  -1.019   
  14.12     0.1183E-2  -1.019     0.3500E-1  -1.018     0.1183E-2  -1.019   
  14.14     0.1146E-2  -1.019     0.3812E-1  -1.016     0.1146E-2  -1.019   
  14.16     0.1110E-2  -1.019     0.4182E-1  -1.014     0.1110E-2  -1.019   
  14.18     0.1076E-2  -1.018     0.4592E-1  -1.014     0.1076E-2  -1.018   
  14.20     0.1044E-2  -1.018     0.5026E-1  -1.014     0.1044E-2  -1.018   
  14.22     0.1014E-2  -1.018     0.5452E-1  -1.016     0.1014E-2  -1.018   
  14.24     0.9854E-3  -1.018     0.5805E-1  -1.020     0.9854E-3  -1.018   
  14.26     0.9582E-3  -1.018     0.5991E-1  -1.025     0.9582E-3  -1.018   
  14.28     0.9326E-3  -1.017     0.5948E-1  -1.030     0.9326E-3  -1.017   
  14.30     0.9083E-3  -1.017     0.5700E-1  -1.034     0.9083E-3  -1.017   
  14.32     0.8852E-3  -1.017     0.5342E-1  -1.037     0.8852E-3  -1.017   
  14.34     0.8632E-3  -1.017     0.4982E-1  -1.038     0.8632E-3  -1.017   
  14.36     0.8423E-3  -1.017     0.4684E-1  -1.038     0.8423E-3  -1.017   
  14.38     0.8224E-3  -1.017     0.4446E-1  -1.038     0.8224E-3  -1.017   
  14.40     0.8034E-3  -1.016     0.4231E-1  -1.038     0.8034E-3  -1.016   
  14.42     0.7852E-3  -1.016     0.4005E-1  -1.037     0.7852E-3  -1.016   
  14.44     0.7679E-3  -1.016     0.3772E-1  -1.036     0.7679E-3  -1.016   
  14.46     0.7512E-3  -1.016     0.3569E-1  -1.034     0.7512E-3  -1.016   
  14.48     0.7353E-3  -1.016     0.3434E-1  -1.031     0.7353E-3  -1.016   
  14.50     0.7201E-3  -1.016     0.3393E-1  -1.028     0.7201E-3  -1.016   
  14.52     0.7054E-3  -1.016     0.3459E-1  -1.025     0.7054E-3  -1.016   
  14.54     0.6914E-3  -1.015     0.3643E-1  -1.022     0.6914E-3  -1.015   
  14.56     0.6779E-3  -1.015     0.3949E-1  -1.019     0.6779E-3  -1.015   
  14.58     0.6649E-3  -1.015     0.4370E-1  -1.018     0.6649E-3  -1.015   
  14.60     0.6525E-3  -1.015     0.4871E-1  -1.018     0.6525E-3  -1.015   
  14.62     0.6405E-3  -1.015     0.5366E-1  -1.021     0.6405E-3  -1.015   
  14.64     0.6289E-3  -1.015     0.5723E-1  -1.026     0.6289E-3  -1.015   
  14.66     0.6178E-3  -1.015     0.5831E-1  -1.032     0.6178E-3  -1.015   
  14.68     0.6072E-3  -1.015     0.5675E-1  -1.037     0.6072E-3  -1.015   
  14.70     0.5969E-3  -1.014     0.5341E-1  -1.042     0.5969E-3  -1.014   
  14.72     0.5869E-3  -1.014     0.4935E-1  -1.045     0.5869E-3  -1.014   
  14.74     0.5774E-3  -1.014     0.4523E-1  -1.046     0.5774E-3  -1.014   
  14.76     0.5682E-3  -1.014     0.4137E-1  -1.046     0.5682E-3  -1.014   
  14.78     0.5593E-3  -1.014     0.3801E-1  -1.045     0.5593E-3  -1.014   
  14.80     0.5507E-3  -1.014     0.3531E-1  -1.044     0.5507E-3  -1.014   
  14.82     0.5425E-3  -1.014     0.3321E-1  -1.042     0.5425E-3  -1.014   
  14.84     0.5345E-3  -1.014     0.3156E-1  -1.040     0.5345E-3  -1.014   
  14.86     0.5269E-3  -1.014     0.3025E-1  -1.038     0.5269E-3  -1.014   
  14.88     0.5195E-3  -1.013     0.2936E-1  -1.036     0.5195E-3  -1.013   
  14.90     0.5124E-3  -1.013     0.2907E-1  -1.033     0.5124E-3  -1.013   
  14.92     0.5056E-3  -1.013     0.2956E-1  -1.031     0.5056E-3  -1.013   
  14.94     0.4990E-3  -1.013     0.3093E-1  -1.028     0.4990E-3  -1.013   
  14.96     0.4926E-3  -1.013     0.3323E-1  -1.026     0.4926E-3  -1.013   
  14.98     0.4866E-3  -1.013     0.3646E-1  -1.024     0.4866E-3  -1.013   
  15.00     0.4807E-3  -1.013     0.4057E-1  -1.023     0.4807E-3  -1.013   
  15.02     0.4751E-3  -1.013     0.4550E-1  -1.023     0.4751E-3  -1.013   
  15.04     0.4698E-3  -1.013     0.5108E-1  -1.025     0.4698E-3  -1.013   
  15.06     0.4647E-3  -1.013     0.5660E-1  -1.030     0.4647E-3  -1.013   
  15.08     0.4598E-3  -1.013     0.6069E-1  -1.037     0.4598E-3  -1.013   
  15.10     0.4552E-3  -1.012     0.6173E-1  -1.046     0.4552E-3  -1.012   
  15.12     0.4508E-3  -1.012     0.5905E-1  -1.055     0.4508E-3  -1.012   
  15.14     0.4467E-3  -1.012     0.5346E-1  -1.062     0.4467E-3  -1.012   
  15.16     0.4428E-3  -1.012     0.4649E-1  -1.066     0.4428E-3  -1.012   
  15.18     0.4392E-3  -1.012     0.3947E-1  -1.068     0.4392E-3  -1.012   
  15.20     0.4359E-3  -1.012     0.3315E-1  -1.068     0.4359E-3  -1.012   
  15.22     0.4328E-3  -1.012     0.2782E-1  -1.067     0.4328E-3  -1.012   
  15.24     0.4301E-3  -1.012     0.2348E-1  -1.065     0.4301E-3  -1.012   
  15.26     0.4278E-3  -1.012     0.1999E-1  -1.063     0.4278E-3  -1.012   
  15.28     0.4258E-3  -1.012     0.1720E-1  -1.061     0.4258E-3  -1.012   
  15.30     0.4242E-3  -1.012     0.1496E-1  -1.059     0.4242E-3  -1.012   
  15.32     0.4231E-3  -1.012     0.1314E-1  -1.057     0.4231E-3  -1.012   
  15.34     0.4224E-3  -1.012     0.1165E-1  -1.055     0.4224E-3  -1.012   
  15.36     0.4224E-3  -1.011     0.1041E-1  -1.054     0.4224E-3  -1.011   
  15.38     0.4230E-3  -1.011     0.9384E-2  -1.052     0.4230E-3  -1.011   
  15.40     0.4244E-3  -1.011     0.8515E-2  -1.051     0.4244E-3  -1.011   
  15.42     0.4263E-3  -1.011     0.7774E-2  -1.049     0.4263E-3  -1.011   
  15.44     0.4286E-3  -1.011     0.7139E-2  -1.048     0.4286E-3  -1.011   
  15.46     0.4304E-3  -1.011     0.6588E-2  -1.047     0.4304E-3  -1.011   
  15.48     0.4314E-3  -1.011     0.6108E-2  -1.046     0.4314E-3  -1.011   
  15.50     0.4313E-3  -1.011     0.5686E-2  -1.044     0.4313E-3  -1.011   
  15.52     0.4308E-3  -1.011     0.5313E-2  -1.043     0.4308E-3  -1.011   
  15.54     0.4306E-3  -1.011     0.4981E-2  -1.043     0.4306E-3  -1.011   
  15.56     0.4311E-3  -1.011     0.4685E-2  -1.042     0.4311E-3  -1.011   
  15.58     0.4328E-3  -1.011     0.4419E-2  -1.041     0.4328E-3  -1.011   
  15.60     0.4357E-3  -1.011     0.4179E-2  -1.040     0.4357E-3  -1.011   
  15.62     0.4398E-3  -1.011     0.3961E-2  -1.039     0.4398E-3  -1.011   
  15.64     0.4453E-3  -1.011     0.3763E-2  -1.039     0.4453E-3  -1.011   
  15.66     0.4522E-3  -1.010     0.3582E-2  -1.038     0.4522E-3  -1.010   
  15.68     0.4607E-3  -1.010     0.3416E-2  -1.037     0.4607E-3  -1.010   
  15.70     0.4709E-3  -1.010     0.3264E-2  -1.037     0.4709E-3  -1.010   
  15.72     0.4830E-3  -1.010     0.3124E-2  -1.036     0.4830E-3  -1.010   
  15.74     0.4974E-3  -1.010     0.2994E-2  -1.035     0.4974E-3  -1.010   
  15.76     0.5144E-3  -1.010     0.2873E-2  -1.035     0.5144E-3  -1.010   
  15.78     0.5345E-3  -1.010     0.2761E-2  -1.034     0.5345E-3  -1.010   
  15.80     0.5583E-3  -1.010     0.2657E-2  -1.034     0.5583E-3  -1.010   
  15.82     0.5865E-3  -1.010     0.2560E-2  -1.033     0.5865E-3  -1.010   
  15.84     0.6200E-3  -1.010     0.2468E-2  -1.033     0.6200E-3  -1.010   
  15.86     0.6602E-3  -1.010     0.2383E-2  -1.033     0.6602E-3  -1.010   
  15.88     0.7085E-3  -1.010     0.2303E-2  -1.032     0.7085E-3  -1.010   
  15.90     0.7669E-3  -1.010     0.2228E-2  -1.032     0.7669E-3  -1.010   
  15.92     0.8382E-3  -1.010     0.2157E-2  -1.032     0.8382E-3  -1.010   
  15.94     0.9258E-3  -1.010     0.2090E-2  -1.031     0.9258E-3  -1.010   
  15.96     0.1034E-2  -1.010     0.2027E-2  -1.031     0.1034E-2  -1.010   
  15.98     0.1159E-2  -1.011     0.1953E-2  -1.032     0.1159E-2  -1.011   
  16.00     0.1163E-4  -1.011     0.2172E-4  -1.031     0.1163E-4  -1.011   
# 
# 04/03/2015 at 11:58 YAMBO @ anomaly [start]
# 04/03/2015 at 11:59                 [end]
#  
# Timing   [Min/Max/Average]: 16s/16s/16s
#
# .-Input file : Inputs/05_BSE
# | optics                       # [R OPT] Optics
# | bse                          # [R BSE] Bethe Salpeter Equation.
# | bsk                          # [R BSK] Bethe Salpeter Equation kernel
# | bss                          # [R BSS] Bethe Salpeter Equation solver
# | BS_CPU= ""                   # [PARALLEL] CPUs for each role
# | BS_ROLEs= ""                 # [PARALLEL] CPUs roles (k,eh,t)
# | BS_nCPU_invert= 1            # [PARALLEL] CPUs for matrix inversion
# | BS_nCPU_diago= 1             # [PARALLEL] CPUs for matrix diagonalization
# | X_Threads=0                  # [OPENMP/X] Number of threads for response functions
# | DIP_Threads=0                # [OPENMP/X] Number of threads for dipoles
# | BSEmod= "causal"             # [BSE] resonant/causal/x_coupling/xc_coupling
# | BSKmod= "SEX"                # [BSE] IP/Hartree/HF/ALDA/SEX
# | BSSmod= "h"                  # [BSS] (h)aydock/(d)iagonalization/(i)nversion/(t)ddft`
# | BSENGexx= 20005        RL    # [BSK] Exchange components
# | BSENGBlk=  437         RL    # [BSK] Screened interaction block size
# | % KfnQP_E
# |  5.100000 | 1.000000 | 1.000000 |        # [EXTQP BSK BSS] E parameters  (c/v) eV|adim|adim
# | %
# | % BEnRange
# |   6.00000 | 16.00000 | eV    # [BSS] Energy range
# | %
# | % BDmRange
# |   0.10000 |  0.10000 | eV    # [BSS] Damping range
# | %
# | BEnSteps=  500               # [BSS] Energy steps
# | % BLongDir
# | 0.1000E-4 | 0.000    | 0.000    |        # [BSS] [cc] Electric Field
# | %
# | % BSEBands
# |    1 |  38 |                 # [BSK] Bands range
# | %
# | BSHayTrs=0.1000E-2           # [BSS] [o/o] Haydock treshold. Strict(>0)/Average(<0)
