#                                                           
# :::   :::   :::     ::::    ::::  :::::::::   ::::::::    
# :+:   :+: :+: :+:   +:+:+: :+:+:+ :+:    :+: :+:    :+:   
#  +:+ +:+ +:+   +:+  +:+ +:+:+ +:+ +:+    +:+ +:+    +:+   
#   +#++: +#++:++#++: +#+  +:+  +#+ +#++:++#+  +#+    +:+   
#    +#+  +#+     +#+ +#+       +#+ +#+    +#+ +#+    +#+   
#    #+#  #+#     #+# #+#       #+# #+#    #+# #+#    #+#   
#    ###  ###     ### ###       ### #########   ########    
#                                                           
#             GPL Version 4.0.0 Revision 4245               
#                      Serial Build                         
#                http://www.yambo-code.org                  
#
# Absorption @ Q(1) [q->0 direction] :0.5774E-5 0.5774E-5 0.5774E-5
#
#
# - Energies      are Slater exchange(X)+Perdew & Zunger(C)+Scissor
# - Wavefunctions are Slater exchange(X)+Perdew & Zunger(C)
#
# - The Green`s function is resonant -
# - Using the Length Gauge -
# - [r,Vnl] *is* included -
#
#   BSK|Identifier              :8620
#      |Dimension               :13824
#      |Bands                   :5 - 12
#      |Exchange           [res]: yes
#      |Correlation        [res]: yes
#      |Kernel`s coupling       : no
#      |Exchange           [cpl]: no
#      |W interaction is bare   : no
#      |Correlation        [cpl]: no
#      |ALDA kernel in R-space  : no
#      |RL vectors    [exchange]:229
#      |RL vectors [correlation]:15
#      |E/h energy range    [ev]:-1.000000 - -1.000000
#      |Coupling range     [o/o]: 100.0000 -  100.0000
#    W |Interaction is diagonal : no
#      |Matrix size             :15
#      |Bands                   :1 - 40
#      |e/h energy range    [ev]:-1.000000 - -1.000000
#      |Poles              [o/o]: 100.0000
#      |Rl vectors in the sum   :229
#      |[r,Vnl] included        : yes
#      |Field direction         :0.5774E-5 0.5774E-5 0.5774E-5
#      |Coulomb Cutoff          :none
#      |xc-Kernel               :none
#   RIM|RL components      [col]:0
#      |Random points      [col]:0
#  
#   Haydock|Accuracy (requested) [o/o]: -0.02000
#          |Accuracy (reached)   [o/o]:  0.01888
#          |Iteration                 :63
#
#  E/ev[1]    eps /Im[2] eps /Re[3] eps0/Im[4] eps0/Re[5] eps`/Im[6] eps`/Re[7]
#
   0.00000    0.00000   18.95000    0.00000   17.36261    0.00000   18.95000
 0.3015E-1  0.1821E-1   18.95     0.1421E-1   17.36     0.1821E-1   18.95   
   0.06030    0.03647   18.96087    0.02846   17.37115    0.03647   18.96087
   0.09045    0.05483   18.97448    0.04278   17.38189    0.05483   18.97448
   0.12060    0.07336   18.99360    0.05722   17.39683    0.07336   18.99360
   0.15075    0.09210   19.01826    0.07181   17.41614    0.09210   19.01826
   0.18090    0.11111   19.04855    0.08660   17.43969    0.11111   19.04855
   0.21106    0.13046   19.08455    0.10161   17.46775    0.13046   19.08455
   0.24121    0.15021   19.12637    0.11691   17.50023    0.15021   19.12637
   0.27136    0.17042   19.17413    0.13254   17.53763    0.17042   19.17413
   0.30151    0.19117   19.22799    0.14854   17.57955    0.19117   19.22799
   0.33166    0.21254   19.28810    0.16498   17.62607    0.21254   19.28810
   0.36181    0.23460   19.35465    0.18191   17.67783    0.23460   19.35465
   0.39196    0.25747   19.42787    0.19939   17.73459    0.25747   19.42787
   0.42211    0.28123   19.50799    0.21749   17.79704    0.28123   19.50799
   0.45226    0.30601   19.59529    0.23630   17.86451    0.30601   19.59529
   0.48241    0.33193   19.69009    0.25590   17.93750    0.33193   19.69009
   0.51256    0.35913   19.79271    0.27638   18.01685    0.35913   19.79271
   0.54271    0.38778   19.90355    0.29784   18.10196    0.38778   19.90355
   0.57286    0.41805   20.02305    0.32041   18.19400    0.41805   20.02305
   0.60302    0.45017   20.15170    0.34424   18.29276    0.45017   20.15170
   0.63317    0.48437   20.29004    0.36946   18.39847    0.48437   20.29004
   0.66332    0.52094   20.43871    0.39626   18.51205    0.52094   20.43871
   0.69347    0.56020   20.59838    0.42485   18.63347    0.56020   20.59838
   0.72362    0.60253   20.76988    0.45547   18.76384    0.60253   20.76988
   0.75377    0.64840   20.95409    0.48840   18.90352    0.64840   20.95409
   0.78392    0.69835   21.15205    0.52397   19.05294    0.69835   21.15205
   0.81407    0.75304   21.36494    0.56259   19.21298    0.75304   21.36494
   0.84422    0.81325   21.59412    0.60471   19.38447    0.81325   21.59412
   0.87437    0.87998   21.84115    0.65091   19.56881    0.87998   21.84115
   0.90452    0.95442   22.10786    0.70190   19.76666    0.95442   22.10786
   0.93467    1.03808   22.39638    0.75849   19.97971    1.03808   22.39638
   0.96482    1.13290   22.70920    0.82179   20.20923    1.13290   22.70920
   0.99497    1.24132   23.04926    0.89311   20.45759    1.24132   23.04926
   1.02513    1.36657   23.42003    0.97416   20.72641    1.36657   23.42003
   1.05528    1.51289   23.82566    1.06709   21.01841    1.51289   23.82566
   1.08543    1.68598   24.27105    1.17485   21.33651    1.68598   24.27105
   1.11558    1.89369   24.76201    1.30120   21.68448    1.89369   24.76201
   1.14573    2.14695   25.30536    1.45128   22.06644    2.14695   25.30536
   1.17588    2.46138   25.90880    1.63223   22.48742    2.46138   25.90880
   1.20603    2.85972   26.58049    1.85397   22.95364    2.85972   26.58049
   1.23618    3.37584   27.32756    2.13087   23.47120    3.37584   27.32756
   1.26633    4.06094   28.15201    2.48392   24.04700    4.06094   28.15201
   1.29648    4.99283   29.04069    2.94449   24.68646    4.99283   29.04069
   1.32663    6.28690   29.94078    3.56013   25.38882    6.28690   29.94078
   1.35678    8.09672   30.70437    4.40316   26.13769    8.09672   30.70437
   1.38693   10.55367   30.98361    5.57895   26.87470   10.55367   30.98361
   1.41709   13.51036   30.13858    7.22060   27.44353   13.51036   30.13858
   1.44724   16.03758   27.56222    9.41044   27.49455   16.03758   27.56222
   1.47739   16.60028   23.84081   11.90430   26.44478   16.60028   23.84081
   1.50754   14.91634   20.90574   13.72643   23.92296   14.91634   20.90574
   1.53769   12.41094   19.82718   13.67291   20.78257   12.41094   19.82718
   1.56784   10.29351   20.19692   11.94305   18.65715   10.29351   20.19692
   1.59799    8.90228   21.32416    9.83877   18.08509    8.90228   21.32416
   1.62814    8.18082   22.79329    8.18346   18.57271    8.18082   22.79329
   1.65829    8.02218   24.42343    7.13604   19.58214    8.02218   24.42343
   1.68844    8.37507   26.14809    6.61992   20.82251    8.37507   26.14809
   1.71859    9.26586   27.93516    6.54938   22.17271    9.26586   27.93516
   1.74874   10.80655   29.72692    6.89172   23.58995   10.80655   29.72692
   1.77889   13.19687   31.35951    7.67860   25.04850   13.19687   31.35951
   1.80905   16.67265   32.42005    9.01125   26.49341   16.67265   32.42005
   1.83920   21.24337   32.06371   11.05887   27.76769   21.24337   32.06371
   1.86935   26.03514   29.16631   13.99791   28.49136   26.03514   29.16631
   1.89950   28.91663   23.56076   17.75561   27.93223   28.91663   23.56076
   1.92965   28.12885   17.28584   21.47555   25.24240   28.12885   17.28585
   1.95980   24.37948   13.05157   23.40452   20.50840   24.37948   13.05157
   1.98995   19.93283   11.74039   22.31019   15.53279   19.93283   11.74039
   2.02010   16.34220   12.50943   19.01585   12.44436   16.34220   12.50944
   2.05025   13.98051   14.31759   15.41984   11.70244   13.98051   14.31759
   2.08040   12.72143   16.55264   12.62365   12.49213   12.72143   16.55264
   2.11055   12.40067   18.93497   10.80786   14.00336   12.40067   18.93497
   2.14070   12.95735   21.32320    9.83410   15.79762   12.95734   21.32321
   2.17085   14.45014   23.56182    9.56570   17.68150   14.45015   23.56183
   2.20100   17.00308   25.33050    9.95129   19.55777   17.00311   25.33049
   2.23116   20.58590   25.99878   11.02726   21.31256   20.58590   25.99870
   2.26131   24.53272   24.78262   12.86956   22.71061   24.53244   24.78265
   2.29146   27.43113   21.64894   15.42304   23.31063   27.43154   21.64982
   2.32161   28.34321   17.79106   18.18713   22.62582   28.34480   17.78886
   2.35176   27.46790   14.49198   20.27657   20.72304   27.46192   14.49189
   2.38191   25.62958   12.58348   21.18270   18.29643   25.63512   12.59218
   2.41206   24.05512   12.09329   20.89786   16.08114   24.06279   12.08027
   2.44221   23.42426   12.06767   19.88721   14.77388   23.40401   12.06408
   2.47236   23.26344   11.64916   19.09447   14.41655   23.26630   11.67597
   2.50251   22.88669   11.04655   18.94727   14.24993   22.91900   11.03576
   2.53266   22.53128   10.69156   18.98953   13.75061   22.51215   10.65385
   2.56281   22.47456   10.17130   18.83750   13.19868   22.43027   10.19985
   2.59296   22.11385    9.22204   18.75925   12.75843   22.15330    9.27366
   2.62312   21.11256    8.56935   18.74792   12.07455   21.17289    8.51935
   2.65327   20.18310    8.64337   18.33168   11.21298   20.12294    8.56929
   2.68342   19.81970    8.87782   17.51065   10.72098   19.72496    8.95132
   2.71357   19.63622    8.79581   16.81591   10.74179   19.72911    8.91521
   2.74372   19.27933    8.66706   16.50744   10.84605   19.42329    8.55174
   2.77387   18.98741    8.65231   16.28212   10.76795   18.85131    8.48285
   2.80402   18.72691    8.48266   15.97721   10.72509   18.53051    8.63671
   2.83417   18.16559    8.34486   15.77724   10.73084   18.33026    8.56668
   2.86432   17.58115    8.63332   15.56789   10.61220   17.82893    8.47307
   2.89447   17.42028    9.04475   15.19943   10.56803   17.28014    8.76593
   2.92462   17.38866    9.05733   14.91806   10.70065   17.07778    9.16548
   2.95477   16.84533    8.93413   14.78865   10.72812   16.90685    9.26712
   2.98492   15.94297    9.42394   14.48738   10.55910   16.28229    9.43236
   3.01508   15.41429   10.60682   13.80184   10.52969   15.51821   10.27654
   3.04523   15.60042   11.94410   12.99171   11.00767   15.29660   11.72529
   3.07538   16.23420   12.96388   12.48509   11.90700   15.89178   13.21861
   3.10553   16.85787   13.77489   12.36281   12.89293   17.03321   14.23440
   3.13568   17.58602   14.83599   12.44944   13.84332   18.13993   14.78211
   3.16583   19.00917   16.06381   12.68121   14.84760   19.12898   15.44816
   3.19598   21.33268   16.72938   13.14532   15.96007   20.69246   16.38470
   3.22613   23.92515   16.16435   13.98953   17.14931   23.32046   16.78875
   3.25628   25.84761   14.65349   15.37564   18.23289   26.40966   15.52198
   3.28643   27.11854   12.95034   17.33703   18.86722   28.21511   12.51087
   3.31658   28.03075   10.87303   19.62578   18.62090   27.78980    9.61766
   3.34673   27.82724    8.38594   21.56080   17.29772   26.50401    8.34935
   3.37688   26.25480    6.79369   22.42719   15.41525   25.88006    8.08136
   3.40704   24.64944    6.86265   22.26153   13.88766   25.78984    7.59452
   3.43719   24.17307    7.79865   21.72375   13.11359   25.22780    6.92535
   3.46734   24.73752    8.42486   21.30820   12.87085   24.24793    7.13176
   3.49749   25.41302    8.41123   21.02760   12.88302   24.01171    8.42341
   3.52764   25.83523    8.51877   20.83996   13.23690   25.31504    9.86520
   3.55779   26.84844    9.07388   21.04427   13.98819   27.96910   10.12452
   3.58794   29.06333    9.06808   21.93818   14.84506   30.56560    8.32638
   3.61809   31.56841    7.21604   23.56905   15.31976   31.32634    5.42875
   3.64824   32.35223    3.89536   25.57400   14.90348   30.51515    3.55281
   3.67839   30.98579    1.42093   27.20163   13.54430   30.02644    3.05502
   3.70854   29.42108    0.97462   27.99303   11.82990   30.62770    2.49658
   3.73869   29.30078    1.47349   28.07631   10.32520   31.22872    0.86541
   3.76884   30.54384    1.18070   27.77964    9.34132   30.63544   -0.90984
   3.79899   31.60157   -0.64877   27.55399    8.93368   29.63703   -1.45656
   3.82915   31.23625   -2.77109   27.72690    8.83754   29.78871   -1.21325
   3.85930   30.37980   -3.77289   28.32431    8.74087   31.31593   -1.85359
   3.88945   30.49845   -4.26803   29.33072    8.47995   32.63797   -4.47595
   3.91960   31.36147   -5.84728   30.69696    7.70721   31.87065   -7.89903
   3.94975   31.20236   -8.76768   31.90208    6.21355   29.54412   -9.88268
   3.97990   29.25220  -11.25098   32.54224    4.43345   27.72218  -10.21524
   4.01005   26.97305  -12.15260   32.85995    2.79753   27.28718  -10.45779
   4.04020   25.68581  -12.39503   33.23385    1.20160   27.26953  -12.03363
   4.07035   24.99011  -13.36727   33.69029   -0.72678   25.85548  -14.58370
   4.10050   23.43016  -15.08939   33.87599   -3.26539   22.76434  -16.21250
   4.13065   20.58947  -16.12193   33.23910   -6.29455   19.47495  -16.06538
   4.16080   17.58493  -15.66968   31.42389   -9.31772   17.11258  -14.80679
   4.19095   15.38300  -14.19286   28.36329  -11.58890   15.82001  -13.38116
   4.22111   14.20674  -12.43189   24.69506  -12.30303   15.11024  -12.37771
   4.25126   13.83442  -10.95617   21.54781  -11.48461   14.32127  -11.70355
   4.28141   13.75112  -10.01884   19.52951   -9.93365   13.35187  -10.77410
   4.31156   13.48400   -9.31489   18.47277   -8.43937   12.68657   -9.35513
   4.34171   13.18413   -8.32882   17.82752   -7.23425   12.73438   -7.72067
   4.37186   13.38767   -7.05793   17.35331   -6.03016   13.62564   -6.33876
   4.40201   14.39609   -5.99633   17.28889   -4.67981   15.17628   -5.77822
   4.43216   16.01081   -5.82775   17.87980   -3.43370   16.65097   -6.45054
   4.46231   17.34507   -6.93893   19.05514   -2.75165   17.05470   -7.85025
   4.49246   17.39756   -8.59934   20.30354   -2.92179   16.44109   -8.73718
   4.52261   16.46164   -9.50456   21.07012   -3.63667   15.90363   -8.73611
   4.55276   15.73008   -9.44608   21.37757   -4.35576   16.13018   -8.58319
   4.58291   15.82128   -9.24948   21.56597   -4.95089   16.79759   -9.19638
   4.61307   16.35690   -9.81873   21.73875   -5.57796   16.83161  -10.68976
   4.64322   16.26795  -11.23603   21.83213   -6.22983   15.69630  -11.99979
   4.67337   15.04806  -12.45146   21.98582   -6.88356   14.18409  -12.29560
   4.70352   13.47001  -12.66900   22.23985   -7.83417   13.20536  -11.90255
   4.73367   12.40159  -12.19306   22.15889   -9.25728   12.90970  -11.60924
   4.76382   12.00521  -11.75117   21.33422  -10.71009   12.73502  -11.91691
   4.79397   11.80578  -11.82882   20.00517  -11.61132   11.97345  -12.50734
   4.82412   11.15620  -12.20432   18.71121  -11.86582   10.69517  -12.61595
   4.85427   10.05756  -12.20677   17.83364  -11.76622    9.54402  -12.05247
   4.88442    9.06579  -11.63082   17.39180  -11.81318    8.91687  -11.17201
   4.91457    8.55022  -10.78536   16.91021  -12.28345    8.82729  -10.41609
   4.94472    8.52011  -10.08146   15.94870  -12.79582    8.97865  -10.11518
   4.97487    8.67636   -9.81442   14.74898  -12.84691    8.86892  -10.22150
   5.00502    8.55333   -9.88888   13.76968  -12.50561    8.31011  -10.22632
   5.03518    8.04241   -9.81181   13.08278  -12.08452    7.67411   -9.78522
   5.06533    7.53111   -9.31829   12.55908  -11.69896    7.35900   -9.03198
   5.09548    7.37313   -8.58621   12.12220  -11.35225    7.49653   -8.28967
   5.12563    7.65141   -7.95261   11.71599  -11.01187    7.97155   -7.88569
   5.15578    8.17620   -7.73085   11.36046  -10.60283    8.40194   -7.97980
   5.18593    8.51135   -7.96171   11.14946  -10.12428    8.39784   -8.26972
   5.21608    8.40539   -8.21536   11.15174   -9.65303    8.10703   -8.25745
   5.24623    8.18535   -8.11565   11.38764   -9.33181    8.01443   -7.90383
   5.27638    8.28426   -7.82765   11.71672   -9.31828    8.36696   -7.58878
   5.30653    8.74840   -7.80773   11.90503   -9.56323    8.98389   -7.76111
   5.33668    9.15006   -8.35580   11.90814   -9.86993    9.28856   -8.52842
   5.36683    8.95596   -9.16283   11.82368  -10.18557    8.87891   -9.33596
   5.39699    8.27376   -9.58943   11.64018  -10.53230    8.12097   -9.60658
   5.42714    7.67289   -9.51991   11.35668  -10.84220    7.59208   -9.42479
   5.45729    7.44519   -9.33850   11.05389  -11.12147    7.47104   -9.23799
   5.48744    7.41324   -9.44211   10.70377  -11.45449    7.49363   -9.41236
   5.51759    7.12991   -9.83576   10.18892  -11.80277    7.18548   -9.87306
   5.54774    6.43509  -10.08353    9.50828  -12.01340    6.44161  -10.13289
   5.57789    5.65466   -9.90643    8.80131  -12.01894    5.63365   -9.93871
   5.60804    5.10995   -9.42668    8.15892  -11.88724    5.07824   -9.43930
   5.63819    4.89390   -8.89062    7.58751  -11.66501    4.85928   -8.88189
   5.66834    4.93399   -8.51876    7.10372  -11.37754    4.91046   -8.48396
   5.69849    5.00848   -8.43101    6.71370  -11.06033    5.02192   -8.38227
   5.72864    4.86703   -8.49157    6.41269  -10.74976    4.92094   -8.47194
   5.75879    4.53722   -8.41381    6.17167  -10.47369    4.58707   -8.44866
   5.78894    4.26478   -8.12977    5.96463  -10.23260    4.26679   -8.19331
   5.81910    4.19454   -7.80063    5.77377  -10.03264    4.14124   -7.84348
  5.849246   4.273024  -7.625597   5.562150  -9.859417   4.201110  -7.604040
  5.879397   4.280000  -7.670159   5.334613  -9.668214   4.259858  -7.592972
  5.909548   4.043040  -7.740144   5.124170  -9.462452   4.098001  -7.684021
  5.939699   3.675550  -7.603648   4.920181  -9.263306   3.747963  -7.616168
  5.969849   3.394395  -7.256129   4.697390  -9.054751   3.428763  -7.317110
  6.000000   3.306968  -6.823249   4.461126  -8.792034   3.283827  -6.891013
# 
# 04/07/2015 at 17:19 YAMBO @ apollo [start]
# 04/07/2015 at 17:23                [end]
#  
# Timing   [Min/Max/Average]: 03m-51s/03m-51s/03m-51s
#
# .-Input file : 06_bse.in
# | optics                       # [R OPT] Optics
# | bse                          # [R BSE] Bethe Salpeter Equation.
# | bsk                          # [R BSK] Bethe Salpeter Equation kernel
# | bss                          # [R BSS] Bethe Salpeter Equation solver
# | em1s                         # [R Xs] Static Inverse Dielectric Matrix
# | FFTGvecs= 10           Ry    # [FFT] Plane-waves
# | Chimod= "hartree"            # [X] IP/Hartree/ALDA/LRC/BSfxc
# | BSEmod= "causal"             # [BSE] resonant/causal/x_coupling/xc_coupling
# | BSKmod= "SEX"                # [BSE] IP/Hartree/HF/ALDA/SEX
# | BSSmod= "h"                  # [BSS] (h)aydock/(d)iagonalization/(i)nversion/(t)ddft`
# | BSENGexx= 10           Ry    # [BSK] Exchange components
# | BSENGBlk= 1            Ry    # [BSK] Screened interaction block size
# | % KfnQP_E
# |  0.530000 | 1.000000 | 1.000000 |        # [EXTQP BSK BSS] E parameters  (c/v) eV|adim|adim
# | %
# | % BEnRange
# |  0.000000 | 6.000000 | eV    # [BSS] Energy range
# | %
# | % BDmRange
# |   0.10000 |  0.10000 | eV    # [BSS] Damping range
# | %
# | BEnSteps= 200                # [BSS] Energy steps
# | % BLongDir
# | 0.5774E-5 |0.5774E-5 |0.5774E-5 |        # [BSS] [cc] Electric Field
# | %
# | % BSEBands
# |   5 | 12 |                   # [BSK] Bands range
# | %
# | % BndsRnXs
# |    1 |  40 |                 # [Xs] Polarization function bands
# | %
# | NGsBlkXs= 1            Ry    # [Xs] Response block size
# | % LongDrXs
# | 0.5774E-5 |0.5774E-5 |0.5774E-5 |        # [Xs] [cc] Electric Field
# | %
