#  __  __   ________   ___ __ __    _______   ______        
# /_/\/_/\ /_______/\ /__//_//_/\ /_______/\ /_____/\       
# \ \ \ \ \\::: _  \ \\::\| \| \ \\::: _  \ \\:::_ \ \      
#  \:\_\ \ \\::(_)  \ \\:.      \ \\::(_)  \/_\:\ \ \ \     
#   \::::_\/ \:: __  \ \\:.\-/\  \ \\::  _  \ \\:\ \ \ \    
#     \::\ \  \:.\ \  \ \\. \  \  \ \\::(_)  \ \\:\_\ \ \   
#      \__\/   \__\/\__\/ \__\/ \__\/ \_______\/ \_____\/   
#                                                           
#             GPL Version 4.0.0 Revision 4281               
#                      OpenMPI Build                        
#                http://www.yambo-code.org                  
#
# Absorption @ Q(1) [q->0 direction] :0.1000E-4  0.000     0.000   
#
#
# - Energies      are Slater exchange(X)+Perdew & Zunger(C)+Scissor
# - Wavefunctions are Slater exchange(X)+Perdew & Zunger(C)
#
# - The Green`s function is resonant -
# - Using the Length Gauge -
# - [r,Vnl] *is* included -
#
#  
#   Haydock|Accuracy (requested) [o/o]: -0.02000
#          |Accuracy (reached)   [o/o]:  0.01770
#          |Iteration                 :121
#
#  E/ev[1]    eps /Im[2] eps /Re[3] eps0/Im[4] eps0/Re[5] eps`/Im[6] eps`/Re[7]
#
   0.00000    0.00000   16.98052    0.00000   16.98054    0.00000   16.98052
 0.1001E-1  0.2495E-2   16.98     0.2495E-2   16.98     0.2495E-2   16.98   
 0.2002E-1  0.4995E-2   16.98     0.4995E-2   16.98     0.4995E-2   16.98   
 0.3003E-1  0.7503E-2   16.98     0.7503E-2   16.98     0.7503E-2   16.98   
 0.4004E-1  0.1002E-1   16.98     0.1002E-1   16.98     0.1002E-1   16.98   
 0.5005E-1  0.1255E-1   16.99     0.1255E-1   16.99     0.1255E-1   16.99   
 0.6006E-1  0.1508E-1   16.99     0.1508E-1   16.99     0.1508E-1   16.99   
   0.07007    0.01763   16.99263    0.01763   16.99263    0.01763   16.99263
   0.08008    0.02019   16.99636    0.02019   16.99634    0.02019   16.99636
   0.09009    0.02277   17.00060    0.02277   17.00058    0.02277   17.00060
   0.10010    0.02536   17.00534    0.02536   17.00533    0.02536   17.00534
   0.11011    0.02796   17.01059    0.02796   17.01058    0.02796   17.01059
   0.12012    0.03059   17.01634    0.03059   17.01634    0.03059   17.01634
   0.13013    0.03323   17.02261    0.03323   17.02264    0.03323   17.02261
   0.14014    0.03590   17.02940    0.03590   17.02940    0.03590   17.02940
   0.15015    0.03858   17.03671    0.03858   17.03670    0.03858   17.03671
   0.16016    0.04129   17.04454    0.04129   17.04453    0.04129   17.04454
   0.17017    0.04403   17.05289    0.04403   17.05286    0.04403   17.05289
   0.18018    0.04679   17.06177    0.04679   17.06179    0.04679   17.06177
   0.19019    0.04958   17.07119    0.04958   17.07118    0.04958   17.07119
   0.20020    0.05240   17.08114    0.05239   17.08111    0.05240   17.08114
   0.21021    0.05524   17.09164    0.05524   17.09164    0.05524   17.09164
   0.22022    0.05813   17.10269    0.05813   17.10269    0.05813   17.10269
   0.23023    0.06104   17.11429    0.06104   17.11427    0.06104   17.11429
   0.24024    0.06400   17.12645    0.06400   17.12642    0.06400   17.12645
   0.25025    0.06699   17.13917    0.06699   17.13919    0.06699   17.13917
   0.26026    0.07002   17.15247    0.07002   17.15248    0.07002   17.15247
   0.27027    0.07309   17.16634    0.07309   17.16632    0.07309   17.16634
   0.28028    0.07621   17.18081    0.07621   17.18078    0.07621   17.18081
   0.29029    0.07938   17.19586    0.07938   17.19585    0.07938   17.19586
   0.30030    0.08260   17.21151    0.08260   17.21150    0.08260   17.21151
   0.31031    0.08587   17.22778    0.08587   17.22776    0.08587   17.22778
   0.32032    0.08919   17.24466    0.08919   17.24468    0.08919   17.24466
   0.33033    0.09257   17.26217    0.09257   17.26220    0.09257   17.26217
   0.34034    0.09602   17.28032    0.09602   17.28033    0.09602   17.28032
   0.35035    0.09952   17.29912    0.09952   17.29912    0.09952   17.29912
   0.36036    0.10310   17.31858    0.10310   17.31857    0.10310   17.31858
   0.37037    0.10674   17.33871    0.10674   17.33869    0.10674   17.33871
   0.38038    0.11046   17.35953    0.11046   17.35953    0.11046   17.35953
   0.39039    0.11427   17.38104    0.11427   17.38102    0.11427   17.38104
   0.40040    0.11815   17.40326    0.11815   17.40325    0.11815   17.40326
   0.41041    0.12212   17.42621    0.12212   17.42619    0.12212   17.42621
   0.42042    0.12618   17.44990    0.12618   17.44989    0.12618   17.44990
   0.43043    0.13035   17.47435    0.13035   17.47433    0.13035   17.47435
   0.44044    0.13461   17.49957    0.13461   17.49956    0.13461   17.49957
   0.45045    0.13899   17.52558    0.13899   17.52559    0.13899   17.52558
   0.46046    0.14348   17.55240    0.14348   17.55240    0.14348   17.55240
   0.47047    0.14810   17.58006    0.14810   17.58004    0.14810   17.58006
   0.48048    0.15285   17.60857    0.15285   17.60855    0.15285   17.60857
   0.49049    0.15773   17.63795    0.15773   17.63793    0.15773   17.63795
   0.50050    0.16276   17.66824    0.16276   17.66823    0.16276   17.66824
   0.51051    0.16796   17.69946    0.16796   17.69946    0.16796   17.69946
   0.52052    0.17331   17.73163    0.17331   17.73161    0.17331   17.73163
   0.53053    0.17885   17.76478    0.17885   17.76477    0.17885   17.76478
   0.54054    0.18457   17.79895    0.18457   17.79897    0.18457   17.79895
   0.55055    0.19050   17.83416    0.19050   17.83414    0.19050   17.83416
   0.56056    0.19665   17.87046    0.19665   17.87048    0.19665   17.87046
   0.57057    0.20303   17.90788    0.20303   17.90788    0.20303   17.90788
   0.58058    0.20967   17.94647    0.20967   17.94651    0.20967   17.94647
   0.59059    0.21657   17.98626    0.21657   17.98627    0.21657   17.98626
   0.60060    0.22376   18.02730    0.22376   18.02731    0.22376   18.02730
   0.61061    0.23127   18.06965    0.23127   18.06967    0.23127   18.06965
   0.62062    0.23911   18.11335    0.23911   18.11333    0.23911   18.11335
   0.63063    0.24732   18.15847    0.24732   18.15848    0.24732   18.15847
   0.64064    0.25593   18.20506    0.25593   18.20506    0.25593   18.20506
   0.65065    0.26497   18.25321    0.26497   18.25319    0.26497   18.25321
   0.66066    0.27449   18.30297    0.27449   18.30296    0.27449   18.30297
   0.67067    0.28451   18.35443    0.28451   18.35443    0.28451   18.35443
   0.68068    0.29510   18.40768    0.29510   18.40767    0.29510   18.40768
   0.69069    0.30631   18.46281    0.30631   18.46280    0.30631   18.46281
   0.70070    0.31820   18.51992    0.31820   18.51991    0.31820   18.51992
   0.71071    0.33084   18.57913    0.33084   18.57912    0.33084   18.57913
   0.72072    0.34430   18.64056    0.34430   18.64054    0.34430   18.64056
   0.73073    0.35869   18.70434    0.35869   18.70432    0.35869   18.70434
   0.74074    0.37410   18.77063    0.37410   18.77064    0.37410   18.77063
   0.75075    0.39065   18.83958    0.39065   18.83958    0.39065   18.83958
   0.76076    0.40848   18.91138    0.40849   18.91135    0.40848   18.91138
   0.77077    0.42776   18.98622    0.42776   18.98622    0.42776   18.98622
   0.78078    0.44866   19.06433    0.44866   19.06432    0.44866   19.06433
   0.79079    0.47139   19.14596    0.47139   19.14599    0.47139   19.14596
   0.80080    0.49623   19.23137    0.49623   19.23136    0.49623   19.23137
   0.81081    0.52346   19.32086    0.52346   19.32084    0.52346   19.32086
   0.82082    0.55345   19.41478    0.55345   19.41476    0.55345   19.41478
   0.83083    0.58661   19.51351    0.58661   19.51350    0.58661   19.51351
   0.84084    0.62346   19.61746    0.62346   19.61749    0.62346   19.61746
   0.85085    0.66461   19.72711    0.66462   19.72709    0.66461   19.72711
   0.86086    0.71082   19.84297    0.71082   19.84296    0.71082   19.84297
   0.87087    0.76300   19.96562    0.76300   19.96559    0.76300   19.96562
   0.88088    0.82229   20.09570    0.82229   20.09571    0.82229   20.09570
   0.89089    0.89007   20.23391    0.89008   20.23390    0.89007   20.23391
   0.90090    0.96812   20.38096    0.96812   20.38093    0.96812   20.38096
   0.91091    1.05863   20.53763    1.05863   20.53765    1.05863   20.53763
   0.92092    1.16443   20.70465    1.16442   20.70466    1.16443   20.70465
   0.93093    1.28908   20.88263    1.28908   20.88264    1.28908   20.88263
   0.94094    1.43720   21.07195    1.43720   21.07193    1.43720   21.07195
   0.95095    1.61473   21.27244    1.61473   21.27248    1.61473   21.27244
   0.96096    1.82935   21.48301    1.82935   21.48307    1.82935   21.48301
   0.97097    2.09094   21.70077    2.09094   21.70080    2.09094   21.70077
   0.98098    2.41198   21.91981    2.41200   21.91981    2.41198   21.91981
   0.99099    2.80781   22.12904    2.80783   22.12903    2.80781   22.12904
   1.00100    3.29586   22.30886    3.29585   22.30887    3.29586   22.30886
   1.01101    3.89285   22.42630    3.89286   22.42629    3.89285   22.42630
   1.02102    4.60730   22.42953    4.60729   22.42953    4.60730   22.42953
   1.03103    5.42415   22.24523    5.42417   22.24526    5.42415   22.24523
   1.04104    6.28071   21.78858    6.28070   21.78856    6.28071   21.78858
   1.05105    7.04541   21.00039    7.04543   21.00040    7.04541   21.00039
   1.06106    7.53424   19.91108    7.53424   19.91106    7.53424   19.91108
   1.07107    7.59475   18.68177    7.59474   18.68177    7.59475   18.68177
   1.08108    7.21036   17.54949    7.21035   17.54948    7.21036   17.54949
   1.09109    6.51301   16.69859    6.51299   16.69856    6.51301   16.69859
   1.10110    5.68869   16.18473    5.68871   16.18471    5.68869   16.18473
   1.11111    4.88237   15.96167    4.88237   15.96164    4.88237   15.96167
   1.12112    4.16943   15.94635    4.16944   15.94634    4.16943   15.94635
   1.13113    3.57272   16.06223    3.57274   16.06222    3.57272   16.06223
   1.14114    3.08730   16.25344    3.08730   16.25344    3.08730   16.25344
   1.15115    2.69767   16.48384    2.69767   16.48386    2.69767   16.48384
   1.16116    2.38655   16.73166    2.38656   16.73166    2.38655   16.73166
   1.17117    2.13841   16.98443    2.13841   16.98444    2.13841   16.98443
   1.18118    1.94041   17.23549    1.94042   17.23547    1.94041   17.23549
   1.19119    1.78244   17.48155    1.78244   17.48154    1.78244   17.48155
   1.20120    1.65665   17.72130    1.65665   17.72130    1.65665   17.72130
   1.21121    1.55704   17.95457    1.55705   17.95457    1.55704   17.95457
   1.22122    1.47907   18.18180    1.47906   18.18180    1.47907   18.18180
   1.23123    1.41928   18.40378    1.41927   18.40376    1.41928   18.40378
   1.24124    1.37513   18.62143    1.37513   18.62146    1.37513   18.62143
   1.25125    1.34479   18.83574    1.34479   18.83575    1.34479   18.83574
   1.26126    1.32702   19.04774    1.32702   19.04775    1.32702   19.04774
   1.27127    1.32106   19.25839    1.32106   19.25840    1.32106   19.25839
   1.28128    1.32665   19.46862    1.32665   19.46862    1.32665   19.46862
   1.29129    1.34398   19.67926    1.34398   19.67929    1.34398   19.67926
   1.30130    1.37372   19.89103    1.37372   19.89104    1.37372   19.89103
   1.31131    1.41707   20.10444    1.41708   20.10443    1.41707   20.10444
   1.32132    1.47585   20.31965    1.47585   20.31964    1.47585   20.31965
   1.33133    1.55258   20.53628    1.55258   20.53630    1.55258   20.53628
   1.34134    1.65062   20.75306    1.65062   20.75307    1.65062   20.75306
   1.35135    1.77414   20.96717    1.77414   20.96720    1.77414   20.96717
   1.36136    1.92794   21.17343    1.92794   21.17345    1.92794   21.17343
   1.37137    2.11661   21.36292    2.11661   21.36293    2.11661   21.36292
   1.38138    2.34255   21.52159    2.34255   21.52158    2.34255   21.52159
   1.39139    2.60197   21.62955    2.60197   21.62958    2.60197   21.62955
   1.40140    2.87847   21.66347    2.87845   21.66352    2.87847   21.66347
   1.41141    3.13724   21.60579    3.13724   21.60584    3.13724   21.60579
   1.42142    3.32781   21.46130    3.32781   21.46131    3.32781   21.46130
   1.43143    3.40407   21.27020    3.40408   21.27018    3.40407   21.27020
   1.44144    3.35316   21.09824    3.35317   21.09827    3.35316   21.09824
   1.45145    3.20518   21.00387    3.20519   21.00391    3.20518   21.00387
   1.46146    3.01227   21.01255    3.01226   21.01255    3.01227   21.01255
   1.47147    2.82072   21.11809    2.82072   21.11810    2.82072   21.11809
   1.48148    2.65849   21.29933    2.65849   21.29932    2.65849   21.29933
   1.49149    2.53730   21.53415    2.53731   21.53417    2.53730   21.53415
   1.50150    2.45936   21.80544    2.45936   21.80545    2.45936   21.80544
   1.51151    2.42288   22.10181    2.42288   22.10182    2.42288   22.10181
   1.52152    2.42526   22.41640    2.42526   22.41641    2.42526   22.41640
   1.53153    2.46461   22.74539    2.46462   22.74538    2.46461   22.74539
   1.54154    2.54047   23.08676    2.54046   23.08675    2.54047   23.08676
   1.55155    2.65401   23.43934    2.65400   23.43933    2.65401   23.43934
   1.56156    2.80825   23.80202    2.80825   23.80205    2.80825   23.80202
   1.57157    3.00815   24.17295    3.00817   24.17297    3.00815   24.17295
   1.58158    3.26071   24.54858    3.26073   24.54854    3.26071   24.54858
   1.59159    3.57471   24.92228    3.57472   24.92228    3.57471   24.92228
   1.60160    3.95993   25.28258    3.95994   25.28258    3.95993   25.28258
   1.61161    4.42514   25.61110    4.42515   25.61109    4.42514   25.61110
   1.62162    4.97372   25.88106    4.97374   25.88107    4.97372   25.88106
   1.63163    5.59714   26.05880    5.59713   26.05881    5.59714   26.05880
   1.64164    6.26856   26.11119    6.26857   26.11121    6.26856   26.11119
   1.65165    6.94360   26.01892    6.94360   26.01889    6.94360   26.01892
   1.66166    7.57294   25.78620    7.57295   25.78621    7.57294   25.78620
   1.67167    8.11790   25.43561    8.11791   25.43562    8.11790   25.43561
   1.68168    8.55238   24.99513    8.55239   24.99516    8.55238   24.99513
   1.69169    8.85614   24.49584    8.85617   24.49585    8.85614   24.49584
   1.70170    9.01771   23.97569    9.01775   23.97571    9.01771   23.97569
   1.71171    9.03928   23.47192    9.03927   23.47194    9.03928   23.47192
   1.72172    8.92763   23.01479    8.92767   23.01483    8.92763   23.01479
   1.73173    8.68839   22.63862    8.68840   22.63863    8.68839   22.63862
   1.74174    8.34075   22.38921    8.34077   22.38925    8.34075   22.38921
   1.75175    7.93269   22.30778    7.93273   22.30780    7.93269   22.30776
   1.76176    7.53224   22.40715    7.53222   22.40715    7.53222   22.40715
   1.77177    7.20344   22.66589    7.20346   22.66595    7.20346   22.66593
   1.78178    6.98952   23.04090    6.98959   23.04093    6.98959   23.04088
   1.79179    6.91058   23.48324    6.91064   23.48320    6.91058   23.48312
   1.80180    6.96940   23.94743    6.96931   23.94738    6.96922   23.94741
   1.81181    7.15740   24.39364    7.15732   24.39380    7.15733   24.39392
   1.82182    7.45688   24.78709    7.45715   24.78731    7.45731   24.78725
   1.83183    7.83954   25.09938    7.83990   25.09905    7.83989   25.09876
   1.84184    8.26593   25.31569    8.26553   25.31516    8.26510   25.31503
   1.85185    8.69544   25.44437    8.69461   25.44487    8.69430   25.44542
   1.86186    9.10514   25.51342    9.10566   25.51468    9.10635   25.51525
   1.87187    9.49857   25.54924    9.50039   25.54881    9.50135   25.54803
   1.88188    9.89130   25.55848    9.89117   25.55605    9.89044   25.55450
   1.89189   10.29193   25.53168   10.28883   25.53135   10.28658   25.53172
   1.90190   10.69875   25.45481   10.69757   25.45856   10.69726   25.46153
   1.91191   11.10156   25.31013   11.10571   25.31260   11.10934   25.31399
   1.92192   11.47123   25.07846   11.47524   25.07439   11.47833   25.07036
   1.93193   11.75382   24.76186   11.75046   24.75612   11.74666   24.75090
   1.94194   11.89635   24.40878   11.88899   24.41051   11.88137   24.41323
   1.95195   11.89070   24.10049   11.88989   24.10898   11.89033   24.11877
   1.96196   11.78374   23.90165   11.79234   23.90587   11.80347   23.90886
   1.97197   11.63952   23.82891   11.64753   23.82169   11.65492   23.81076
   1.98198   11.50004   23.86780   11.49616   23.85643   11.48754   23.84428
   1.99199   11.38489   24.00703   11.37146   24.00583   11.35540   24.00953
   2.00200   11.31700   24.24676   11.30938   24.25980   11.30593   24.27761
   2.01201   11.33452   24.57817   11.34382   24.59234   11.35999   24.60413
   2.02202   11.47454   24.96566   11.49355   24.96357   11.51311   24.95337
   2.03203   11.74807   25.35333   11.75595   25.33310   11.75584   25.30873
   2.04204   12.12960   25.69073   12.11326   25.67214   12.08958   25.65948
   2.05205   12.57105   25.96021   12.54368   25.96701   12.51877   25.98295
   2.06206   13.03592   26.18438   13.02843   26.21534   13.02995   26.24800
   2.07207   13.52836   26.40009   13.55506   26.42372   13.58711   26.44068
   2.08208   14.08651   26.61754   14.12354   26.60406   14.15826   26.58319
   2.09209   14.74390   26.80468   14.75078   26.76204   14.75118   26.71654
   2.10210   15.49711   26.91189   15.46039   26.88229   15.41706   26.85482
   2.11211   16.31098   26.91194   16.26290   26.93026   16.21062   26.95539
   2.12212   17.15843   26.81397   17.14860   26.86912   17.14172   26.93442
   2.13213   18.05276   26.63010   18.09819   26.67050   18.15713   26.71568
   2.14214   19.02854   26.32480   19.09178   26.30606   19.16961   26.27597
   2.15215   20.07847   25.80588   20.09781   25.73693   20.11417   25.64550
   2.16216   21.10340   24.98104   21.05132   24.92336   20.97474   24.85562
   2.17217   21.93100   23.84523   21.84818   23.85968   21.74188   23.89207
   2.18218   22.41161   22.52411   22.37742   22.60753   22.34678   22.72276
   2.19219   22.52044   21.21338   22.57549   21.29125   22.66149   21.38391
   2.20220   22.36147   20.05244   22.46104   20.04849   22.59143   20.02536
   2.21221   22.06416   19.05813   22.11763   18.97033   22.17257   18.84416
   2.22222   21.68252   18.17527   21.63920   18.07943   21.56367   17.95906
   2.23223   21.18970   17.37845   21.08478   17.35835   20.93881   17.35099
   2.24224   20.55852   16.72045   20.47956   16.79425   20.38664   16.91139
   2.25225   19.83626   16.28500   19.84766   16.39385   19.88830   16.54018
   2.26226   19.13796   16.10291   19.23231   16.16207   19.37509   16.21729
   2.27227   18.57636   16.11712   18.68419   16.07961   18.81525   15.99975
   2.28228   18.19842   16.21562   18.23842   16.10472   18.25754   15.95229
   2.29229   17.96979   16.29472   17.90624   16.19011   17.80058   16.07794
   2.30230   17.80774   16.31253   17.68191   16.29603   17.52633   16.30390
   2.31231   17.64459   16.30162   17.54992   16.39219   17.45221   16.51745
   2.32232   17.47932   16.32554   17.49027   16.45956   17.52150   16.61970
   2.33233   17.37304   16.41063   17.48573   16.48923   17.63151   16.57313
   2.34234   17.39256   16.51014   17.52789   16.47378   17.69161   16.41693
   2.35235   17.54918   16.52342   17.61032   16.39425   17.67680   16.22899
   2.36236   17.76940   16.35275   17.70979   16.21999   17.62747   16.05691
   2.37237   17.91307   15.96946   17.77151   15.92808   17.59084   15.88039
   2.38238   17.84118   15.45384   17.71715   15.53472   17.55812   15.63952
   2.39239   17.50129   14.96742   17.48089   15.11285   17.45167   15.30372
   2.40240   16.96164   14.66327   17.05426   14.77362   17.17611   14.92532
   2.41241   16.36184   14.60596   16.50212   14.61389   16.69685   14.62871
   2.42242   15.82988   14.76090   15.93150   14.66856   16.07762   14.53798
   2.43243   15.42879   15.03975   15.43662   14.90470   15.44614   14.70736
   2.44244   15.15041   15.35821   15.06317   15.25536   14.92839   15.10682
   2.45245   14.94494   15.67821   14.80971   15.66261   14.60493   15.65172
   2.46246   14.76906   16.01735   14.65672   16.09949   14.49922   16.23938
   2.47247   14.62449   16.42038   14.59617   16.56165   14.58208   16.77802
   2.48248   14.55979   16.91272   14.63779   17.04232   14.78392   17.21079
   2.49249   14.63818   17.47274   14.79254   17.51840   15.02060   17.53624
   2.50250   14.90062   18.03597   15.05581   17.95904   15.23529   17.80914
   2.51251   15.34315   18.51882   15.40804   18.34262   15.43390   18.10558
   2.52252   15.91142   18.85031   15.82896   18.66365   15.68209   18.46966
   2.53253   16.51575   19.00558   16.30980   18.92439   16.06424   18.88091
   2.54254   17.07203   19.02555   16.85312   19.12110   16.63563   19.25918
   2.55255   17.55384   18.99688   17.46175   19.23574   17.39107   19.49483
   2.56256   18.01199   18.99137   18.12415   19.23986   18.25336   19.49076
   2.57257   18.53755   19.00947   18.80869   19.10984   19.08852   19.21142
   2.58258   19.19469   18.97171   19.47139   18.84186   19.75999   18.71847
   2.59259   19.96797   18.75967   20.07411   18.45593   20.20621   18.15351
   2.60260   20.74964   18.28382   20.59938   17.98282   20.48308   17.65681
   2.61261   21.37961   17.54989   21.04757   17.44482   20.72475   17.27888
   2.62262   21.73291   16.68042   21.41885   16.84915   21.05276   16.95411
   2.63263   21.80349   15.85489   21.70231   16.20148   21.49876   16.54535
   2.64264   21.70892   15.19991   21.88320   15.51820   21.97741   15.92536
   2.65265   21.60831   14.71876   21.95582   14.82385   22.31961   15.06109
   2.66266   21.60215   14.30641   21.92422   14.14065   22.36367   14.05677
   2.67267   21.67805   13.82538   21.79540   13.48469   22.06026   13.11268
   2.68268   21.72123   13.19474   21.57343   12.87014   21.50956   12.41178
   2.69269   21.58518   12.45067   21.26112   12.31680   20.89870   12.02216
   2.70270   21.19154   11.73683   20.86952   11.85388   20.39972   11.88226
   2.71271   20.58986   11.21830   20.43070   11.51201   20.09967   11.85171
   2.72272   19.92941   10.98330   19.99872   11.30291   19.98091   11.78056
   2.73273   19.37633   11.00527   19.63186   11.20339   19.94054   11.57231
   2.74274   19.04262   11.16921   19.36623   11.15889   19.84399   11.22667
   2.75275   18.95506   11.32173   19.20082   11.10444   19.60128   10.83642
   2.76276   19.05058   11.31983   19.10040   10.98856   19.22089   10.52505
   2.77277   19.19063   11.07879   19.00958   10.78756   18.79616   10.36417
   2.78278   19.20458   10.61503   18.87048   10.51090   18.43725   10.33366
   2.79279   18.96529   10.05427   18.64079   10.19681   18.20334   10.34271
   2.80280   18.45761    9.57587   18.30525    9.89738   18.07100   10.28528
   2.81281   17.78268    9.32044   17.87544    9.66260   17.94515   10.10081
   2.82282   17.09436    9.32946   17.38317    9.53081   17.70885    9.81534
   2.83283   16.52525    9.54947   16.87440    9.52213   17.29374    9.53545
   2.84284   16.14543    9.87300   16.40022    9.63221   16.72500    9.38877
   2.85285   15.95323   10.18242   16.00163    9.83182   16.10482    9.45266
   2.86286   15.88395   10.38634   15.69824   10.07813   15.55519    9.72350
   2.87287   15.83303   10.45118   15.48743   10.32812   15.16708   10.13227
   2.88288   15.69952   10.41788   15.34946   10.54634   14.97781   10.57757
   2.89289   15.43735   10.38310   15.25020   10.70936   14.96737   10.95532
   2.90290   15.07860   10.44476   15.14489   10.81455   15.06240   11.18546
   2.91291   14.70809   10.64910   14.99248   10.88850   15.15151   11.24074
   2.92292   14.41259   10.97561   14.77787   10.98057   15.12230   11.16806
   2.93293   14.24073   11.35824   14.52238   11.13808   14.91355   11.07853
   2.94294   14.18801   11.72032   14.27052   11.38103   14.54802   11.09713
   2.95295   14.20290   12.00876   14.06314   11.69804   14.11681   11.30460
   2.96296   14.21209   12.22016   13.91975   12.06273   13.73134   11.71281
   2.97297   14.16078   12.40518   13.84128   12.45405   13.48275   12.27812
   2.98298   14.04747   12.64089   13.82530   12.86397   13.42602   12.92716
   2.99299   13.92675   12.98544   13.87819   13.28933   13.58010   13.57576
   3.00300   13.88006   13.44748   14.01367   13.71942   13.92984   14.13892
   3.01301   13.97973   13.98536   14.24325   14.13139   14.42407   14.54084
   3.02302   14.26671   14.52328   14.56814   14.49339   14.97476   14.73291
   3.03303   14.74037   14.96952   14.97510   14.77018   15.47096   14.71949
   3.04304   15.35237   15.23495   15.43248   14.92910   15.81770   14.57320
   3.05305   16.00490   15.25825   15.88909   14.95311   15.98440   14.41373
   3.06306   16.56629   15.03955   16.28426   14.85515   16.02435   14.35075
   3.07307   16.91635   14.66298   16.57102   14.68306   16.04415   14.43018
   3.08308   17.00697   14.27765   16.73767   14.50369   16.14832   14.62026
   3.09309   16.89304   14.03242   16.81048   14.37627   16.39523   14.83470
   3.10310   16.70426   14.00881   16.83903   14.33503   16.77758   14.97074
   3.11311   16.58372   14.19762   16.88076   14.38560   17.22410   14.95006
   3.12312   16.63842   14.51870   16.98997   14.50527   17.62458   14.75652
   3.13313   16.91752   14.85370   17.20446   14.64369   17.88050   14.45346
   3.14314   17.40626   15.07444   17.53017   14.73233   17.96144   14.15746
   3.15315   18.02423   15.06978   17.93175   14.70500   17.92528   13.97360
   3.16316   18.63225   14.78076   18.33746   14.52310   17.88313   13.93760
   3.17317   19.06547   14.23838   18.66060   14.19566   17.93786   14.00247
   3.18318   19.19909   13.57473   18.83237   13.78170   18.13591   14.06604
   3.19319   19.01345   12.97719   18.83010   13.36881   18.44633   14.01642
   3.20320   18.60551   12.60302   18.68319   13.03788   18.76679   13.78166
   3.21321   18.13526   12.51611   18.45374   12.83505   18.96003   13.37258
   3.22322   17.75399   12.68178   18.20734   12.76630   18.91868   12.89450
   3.23323   17.55889   13.00136   17.99323   12.81045   18.62674   12.50539
   3.24324   17.57935   13.35246   17.83942   12.93581   18.17081   12.33957
   3.25325   17.77930   13.62204   17.75691   13.11173   17.69413   12.45161
   3.26326   18.06870   13.73663   17.74614   13.31332   17.33539   12.81149
   3.27327   18.33066   13.69031   17.80308   13.52272   17.19194   13.33285
   3.28328   18.46992   13.55418   17.92331   13.72750   17.31008   13.90326
   3.29329   18.46289   13.44628   18.10503   13.91720   17.68634   14.40370
   3.30330   18.37200   13.46992   18.34809   14.07789   18.26675   14.72343
   3.31331   18.31162   13.66189   18.64818   14.19004   18.94593   14.78151
   3.32332   18.39412   13.98098   18.98965   14.23221   19.57947   14.55871
   3.33333   18.68959   14.32817   19.34529   14.19188   20.02577   14.12410
   3.34334   19.20600   14.57670   19.68515   14.07169   20.20932   13.62366
   3.35335   19.88070   14.60334   19.98744   13.88658   20.16229   13.21818
   3.36336   20.58230   14.32600   20.24183   13.65376   20.00626   13.00669
   3.37337   21.13635   13.74712   20.44415   13.38649   19.88756   12.98887
   3.38338   21.38644   12.97901   20.59129   13.09457   19.91344   13.07946
   3.39339   21.27003   12.21504   20.67978   12.78601   20.11636   13.15008
   3.40340   20.85345   11.64720   20.70373   12.46762   20.44441   13.07654
   3.41341   20.29495   11.38434   20.65113   12.14882   20.77402   12.78684
   3.42342   19.76833   11.42532   20.50580   11.85105   20.95083   12.30155
   3.43343   19.40238   11.68551   20.25930   11.61382   20.85808   11.74195
   3.44344   19.25566   12.04075   19.92740   11.48883   20.47914   11.28343
   3.45345   19.31520   12.36617   19.55811   11.52045   19.90712   11.07495
   3.46346   19.50682   12.56876   19.22346   11.72434   19.29576   11.18127
   3.47347   19.71854   12.61679   18.99803   12.07690   18.79588   11.57849
   3.48348   19.84390   12.55612   18.93707   12.52040   18.51742   12.18375
   3.49349   19.83397   12.49226   19.06259   12.97818   18.52126   12.88682
   3.50350   19.72469   12.53623   19.35965   13.37367   18.82355   13.56833
   3.51351   19.61678   12.74713   19.78203   13.64694   19.39750   14.10817
   3.52352   19.62578   13.10762   20.26463   13.76653   20.16794   14.39599
   3.53353   19.83683   13.53587   20.73918   13.73300   21.00589   14.35421
   3.54354   20.27945   13.91307   21.14873   13.57508   21.74070   13.97485
   3.55355   20.91628   14.11299   21.45794   13.34044   22.20604   13.35043
   3.56356   21.64062   14.03566   21.65876   13.08230   22.31112   12.66298
   3.57357   22.29072   13.64867   21.76777   12.84451   22.08910   12.11620
   3.58358   22.69623   13.02207   21.81319   12.65074   21.68049   11.85036
   3.59359   22.75081   12.32452   21.81991   12.50789   21.26546   11.89854
   3.60360   22.46871   11.76105   21.80445   12.41692   20.99729   12.19851
   3.61361   21.97832   11.48601   21.78020   12.38007   20.96771   12.63138
   3.62362   21.45970   11.55160   21.76320   12.39892   21.19870   13.05801
   3.63363   21.07666   11.91294   21.77183   12.46908   21.64378   13.34786
   3.64364   20.94005   12.46405   21.82178   12.57846   22.19412   13.40855
   3.65365   21.09980   13.07210   21.92126   12.71026   22.69994   13.21985
   3.66366   21.54704   13.59945   22.07051   12.84892   23.01879   12.85642
   3.67367   22.21427   13.92154   22.26661   12.98388   23.07987   12.47064
   3.68368   22.97627   13.95218   22.50832   13.10679   22.92237   12.22809
   3.69369   23.66747   13.67856   22.79494   13.20603   22.67549   12.23383
   3.70370   24.13004   13.18766   23.11957   13.26611   22.49792   12.49740
   3.71371   24.28242   12.65103   23.46549   13.27504   22.52076   12.94468
   3.72372   24.16296   12.25711   23.81079   13.23173   22.81741   13.45046
   3.73373   23.91109   12.13029   24.13747   13.14644   23.39333   13.86966
   3.74374   23.70192   12.29017   24.43650   13.03497   24.18242   14.06500
   3.75375   23.68222   12.66286   24.70726   12.91194   25.04893   13.94091
   3.76376   23.93560   13.11729   24.95349   12.78811   25.80925   13.48532
   3.77377   24.47110   13.50122   25.17933   12.67069   26.28849   12.79921
   3.78378   25.22100   13.67320   25.38851   12.56713   26.39756   12.07864
   3.79379   26.04649   13.53913   25.58759   12.48661   26.18164   11.53865
   3.80380   26.76493   13.09400   25.78945   12.43720   25.79886   11.32386
   3.81381   27.21088   12.44633   26.01283   12.41979   25.44833   11.46434
   3.82382   27.31209   11.79214   26.27656   12.42446   25.30183   11.88869
   3.83383   27.13000   11.33450   26.59197   12.43175   25.46869   12.46279
   3.84384   26.83030   11.19784   26.95897   12.41892   25.98703   13.02471
   3.85385   26.60916   11.39105   27.36609   12.36670   26.82253   13.40980
   3.86386   26.62782   11.82478   27.79428   12.26467   27.86567   13.47674
   3.87387   26.97960   12.35048   28.22256   12.11381   28.93704   13.14601
   3.88388   27.68017   12.79564   28.63476   11.92661   29.82157   12.44494
   3.89389   28.66396   12.99317   29.02635   11.72224   30.34134   11.52848
   3.90390   29.78406   12.81681   29.40687   11.51664   30.43901   10.63770
   3.91391   30.83034   12.22801   29.79321   11.31306   30.21105   10.00272
   3.92392   31.58592   11.31651   30.19751   11.10124   29.86196    9.75097
   3.93393   31.91551   10.29473   30.61888   10.86655   29.61795    9.87683
   3.94394   31.83556    9.42227   31.04552   10.60221   29.65740   10.26822
   3.95395   31.51025    8.89757   31.46594   10.31420   30.07923   10.75191
   3.96396   31.17618    8.78824   31.87879   10.01582   30.89482   11.13219
   3.97397   31.05518    9.03065   32.29381    9.71770   32.02532   11.22297
   3.98398   31.30065    9.47099   32.72664    9.42239   33.30309   10.88736
   3.99399   31.97873    9.90961   33.19412    9.12409   34.49479   10.08891
   4.00400   33.06363   10.13525   33.71240    8.80829   35.36700    8.93291
   4.01401   34.43314    9.95801   34.29299    8.45021   35.78336    7.65376
   4.02402   35.87234    9.25613   34.93509    8.01557   35.77647    6.52654
   4.03403   37.10896    8.03403   35.61943    7.46899   35.53555    5.74817
   4.04404   37.89869    6.45699   36.30847    6.78566   35.31911    5.36450
   4.05405   38.13285    4.81450   36.95531    5.96123   35.35633    5.27356
   4.06406   37.89695    3.40496   37.51712    5.01345   35.78434    5.27387
   4.07407   37.42916    2.41008   37.96632    3.97499   36.62143    5.12067
   4.08408   37.01105    1.83746   38.29485    2.88084   37.75849    4.58014
   4.09409   36.86491    1.54450   38.50794    1.75672   38.96536    3.49112
   4.10410   37.09589    1.30137   38.61229    0.61622   39.93244    1.83519
   4.11411   37.67251    0.85865   38.60742   -0.53209   40.36658   -0.21853
  4.124      38.43     0.1390E-1   38.49     -1.674      40.12     -2.346   
   4.13413   39.10452   -1.31891   38.24728   -2.78347   39.24506   -4.19050
   4.14414   39.40752   -3.05473   37.89932   -3.83107   38.00315   -5.50800
   4.15415   39.14550   -4.94309   37.46881   -4.79104   36.70730   -6.23719
   4.16416   38.31131   -6.66060   36.99277   -5.65260   35.63191   -6.48126
   4.17417   37.08585   -7.94766   36.50896   -6.42445   34.94873   -6.44414
   4.18418   35.74839   -8.70130   36.04506   -7.13242   34.71187   -6.36878
   4.19419   34.56515   -8.98107   35.61059   -7.81233   34.86096   -6.49023
   4.20420   33.71804   -8.95746   35.19453   -8.49756   35.22972   -6.99170
   4.21421   33.27959   -8.85102   34.76936   -9.20984   35.57067   -7.95336
   4.22422   33.21249   -8.88317   34.29945   -9.95176   35.61676   -9.30727
   4.23423   33.37761   -9.23277   33.75198  -10.70462   35.17769  -10.83823
   4.24424   33.55639   -9.98852   33.10866  -11.43133   34.22303  -12.25780
   4.25425   33.50459  -11.10646   32.37633  -12.08805   32.89110  -13.32177
   4.26426   33.03848  -12.40559   31.58731  -12.64120   31.41665  -13.91561
   4.27427   32.11373  -13.62998   30.78748  -13.08222   30.03419  -14.06629
   4.28428   30.84056  -14.55343   30.01784  -13.42970   28.91371  -13.90028
   4.29429   29.42363  -15.06198   29.30015  -13.71947   28.13781  -13.59165
   4.30430   28.07429  -15.17042   28.63268  -13.99039   27.70280  -13.32196
   4.31431   26.94786  -14.98728   27.99403  -14.27175   27.52527  -13.24952
   4.32432   26.12003  -14.66649   27.35156  -14.57646   27.45357  -13.47759
   4.33433   25.58641  -14.36807   26.67016  -14.89762   27.29595  -14.01959
   4.34434   25.27027  -14.22752   25.92256  -15.20975   26.87590  -14.77958
   4.35435   25.03715  -14.32572   25.09821  -15.47389   26.09932  -15.57532
   4.36436   24.72576  -14.66096   24.20930  -15.64923   24.99241  -16.20690
   4.37437   24.19961  -15.13955   23.28790  -15.70623   23.68107  -16.53246
   4.38438   23.40091  -15.60558   22.37553  -15.63482   22.32965  -16.50464
   4.39439   22.37188  -15.90315   21.51165  -15.44427   21.08393  -16.15858
   4.40440   21.22741  -15.93445   20.72565  -15.15730   20.04319  -15.57772
   4.41441   20.10227  -15.68016   20.03448  -14.80304   19.25816  -14.86328
   4.42442   19.10841  -15.18355   19.44333  -14.41147   18.73923  -14.11665
   4.43443   18.31773  -14.52179   18.94801  -14.01003   18.46345  -13.43183
   4.44444   17.76269  -13.78333   18.53662  -13.62171   18.37661  -12.88918
   4.45445   17.44266  -13.05580   18.19158  -13.26330   18.39399  -12.54450
   4.46446   17.32766  -12.41959   17.89097  -12.94415   18.40824  -12.41181
   4.47447   17.35886  -11.94093   17.61152  -12.66401   18.31258  -12.44847
   4.48448   17.45017  -11.65875   17.33255  -12.41280   18.03641  -12.55844
   4.49449   17.50007  -11.56787   17.04077  -12.17155   17.57377  -12.62277
   4.50450   17.41830  -11.60898   16.73403  -11.91704   16.98302  -12.54341
   4.51451   17.15953  -11.68044   16.42302  -11.62724   16.35817  -12.27287
   4.52452   16.74234  -11.67352   16.12935  -11.28805   15.79355  -11.81655
   4.53453   16.23852  -11.51151   15.88053  -10.89841   15.36174  -11.21650
   4.54454   15.74141  -11.16909   15.70229  -10.47117   15.10751  -10.53299
   4.55455   15.33589  -10.66713   15.61230  -10.03097   15.05064   -9.83288
   4.56456   15.08291  -10.05564   15.61555   -9.60857   15.18903   -9.18431
   4.57457   15.01716   -9.39861   15.70283   -9.23456   15.49842   -8.65391
   4.58458   15.14967   -8.76533   15.85234   -8.93220   15.92907   -8.30090
   4.59459   15.46875   -8.22676   16.03487   -8.71255   16.40370   -8.16468
   4.60460   15.93717   -7.85122   16.22117   -8.57170   16.82502   -8.24621
   4.61461   16.48781   -7.69475   16.38989   -8.49380   17.09954   -8.49368
   4.62462   17.02479   -7.78346   16.53296   -8.45798   17.17258   -8.80791
   4.63463   17.43897   -8.09306   16.65455   -8.44711   17.05387   -9.07435
   4.64464   17.64128   -8.54024   16.76541   -8.45386   16.81397   -9.20616
   4.65465   17.60000   -9.00165   16.87499   -8.48135   16.55361   -9.17212
   4.66466   17.35666   -9.35738   16.98594   -8.53941   16.36758   -8.99759
   4.67467   17.00724   -9.53395   17.09154   -8.63890   16.32070   -8.74805
   4.68468   16.66301   -9.52172   17.17661   -8.78576   16.43773   -8.50927
   4.69469   16.41566   -9.36534   17.22181   -8.97639   16.70054   -8.36971
   4.70470   16.31908   -9.14227   17.21064   -9.19605   17.04845   -8.40306
   4.71471   16.38386   -8.94208   17.13519   -9.42301   17.38480   -8.64717
   4.72472   16.57749   -8.84884   16.99810   -9.63470   17.59750   -9.08341
   4.73473   16.82822   -8.92286   16.81006   -9.81260   17.59541   -9.63007
   4.74474   17.03743   -9.18070   16.58622   -9.94346   17.34625  -10.16380
   4.75475   17.10667   -9.58088   16.34498  -10.01911   16.89126  -10.56426
   4.76476   16.97433  -10.02965   16.10742  -10.03743   16.32548  -10.75605
   4.77477   16.64276  -10.41313   15.89562  -10.00472   15.75953  -10.72427
   4.78478   16.17633  -10.64042   15.72829   -9.93677   15.28763  -10.50421
   4.79479   15.67248  -10.67225   15.61563   -9.85697   14.97301  -10.16088
   4.80480   15.22692  -10.52305   15.55604   -9.79095   14.84638   -9.77219
   4.81481   14.91101  -10.24541   15.53653   -9.76021   14.90857   -9.41884
   4.82482   14.76413   -9.91201   15.53688   -9.77753   15.13131   -9.17808
   4.83483   14.79337   -9.60252   15.53520   -9.84524   15.45566   -9.11499
   4.84484   14.97418   -9.39431   15.51263   -9.95729   15.79311   -9.26791
   4.85485   15.24972   -9.35219   15.45542  -10.10283   16.03743   -9.62987
   4.86486   15.53345   -9.51323   15.35445  -10.26870   16.09219  -10.13722
   4.87487   15.72227   -9.86878   15.20439  -10.44030   15.90616  -10.68028
   4.88488   15.72462  -10.35470   15.00424  -10.60150   15.49475  -11.13891
   4.89489   15.49445  -10.86364   14.75861  -10.73573   14.93147  -11.42379
   4.90490   15.05043  -11.28045   14.47870  -10.82868   14.31600  -11.49943
   4.91491   14.46567  -11.52155   14.18091  -10.87213   13.74102  -11.38108
   4.92492   13.83627  -11.55513   13.88274  -10.86609   13.27326  -11.11700
   4.93493   13.25045  -11.39669   13.59799  -10.81783   12.94921  -10.77041
   4.94494   12.77174  -11.09166   13.33361  -10.73776   12.77750  -10.40747
   4.95495   12.43613  -10.69851   13.09089  -10.63488   12.74198  -10.08979
   4.96496   12.25533  -10.27823   12.86804  -10.51460   12.80352   -9.86766
   4.97497   12.22039   -9.88905   12.66315  -10.37886   12.90316   -9.77061
   4.98498   12.30271   -9.58241   12.47590  -10.22705   12.97163   -9.79652
   4.99499   12.45432   -9.39645   12.30889  -10.05758   12.94807   -9.90609
   5.00500   12.61167   -9.34597   12.16807   -9.87004   12.80212  -10.03165
   5.01501   12.70773   -9.41243   12.06175   -9.66782   12.54625  -10.10052
   5.02502   12.69249   -9.54293   11.99792   -9.45980   12.22899  -10.06103
   5.03503   12.55257   -9.66463   11.98054   -9.25986   11.91458   -9.89610
   5.04504   12.31654   -9.71070   12.00650   -9.08436   11.66229   -9.62120
   5.05505   12.04182   -9.64256   12.06457   -8.94788   11.51477   -9.27369
   5.06506   11.79271   -9.45732   12.13694   -8.85852   11.49454   -8.90220
   5.07507   11.62253   -9.18148   12.20351   -8.81484   11.60412   -8.55941
   5.08508   11.56489   -8.85940   12.24752   -8.80569   11.82586   -8.29672
   5.09509   11.63165   -8.54359   12.26042   -8.81359   12.12088   -8.15774
   5.10510   11.81266   -8.28729   12.24357   -8.82044   12.43013   -8.16802
   5.11511   12.07542   -8.13729   12.20633   -8.81256   12.68267   -8.32252
   5.12512   12.36634   -8.12398   12.16200   -8.78332   12.81439   -8.57812
   5.13514   12.61808   -8.24930   12.12390   -8.73280   12.79155   -8.86067
   5.14514   12.76672   -8.47828   12.10294   -8.66617   12.62571   -9.08845
   5.15515   12.77475   -8.74397   12.10681   -8.59204   12.36882   -9.20033
   5.16516   12.64741   -8.96841   12.13935   -8.52120   12.09240   -9.17224
   5.17518   12.43071   -9.09044   12.19969   -8.46552   11.86483   -9.01671
   5.18518   12.19252   -9.08403   12.28154   -8.43560   11.73730   -8.77204
   5.19519   11.99972   -8.96000   12.37463   -8.43771   11.73916   -8.49042
   5.20520   11.90276   -8.75644   12.46795   -8.47234   11.87785   -8.22980
   5.21522   11.92924   -8.52677   12.55339   -8.53572   12.13881   -8.04803
   5.22522   12.08250   -8.33026   12.62671   -8.62336   12.48419   -7.99655
   5.23523   12.34114   -8.22424   12.68547   -8.73260   12.85287   -8.10997
   5.24524   12.65867   -8.25499   12.72595   -8.86214   13.16689   -8.39235
   5.25526   12.96701   -8.44518   12.74234   -9.00921   13.34926   -8.80631
   5.26526   13.18875   -8.78090   12.72843   -9.16744   13.34984   -9.27566
   5.27527   13.25979   -9.20692   12.68052   -9.32667   13.16609   -9.70713
   5.28528   13.15391   -9.63910   12.59977   -9.47441   12.84418  -10.02174
   5.29530   12.89413   -9.99231   12.49323   -9.59862   12.45967  -10.17813
   5.30531   12.54252  -10.20886   12.37399   -9.69099   12.09139  -10.17702
   5.31531   12.17607  -10.27204   12.25877   -9.75021   11.80257  -10.05129
   5.32533   11.86385  -10.20203   12.16388   -9.78381   11.63333   -9.85213
   5.33534   11.65435  -10.04331   12.10020   -9.80698   11.60018   -9.63837
   5.34535   11.57193   -9.85232   12.06995   -9.83883   11.69716   -9.46980
   5.35536   11.61726   -9.68874   12.06601   -9.89752   11.89590   -9.40150
   5.36537   11.76767   -9.60893   12.07359   -9.99657   12.14519   -9.47596
   5.37538   11.97722   -9.65797   12.07279  -10.14210   12.37448   -9.71132
   5.38539   12.17976   -9.85853   12.04158  -10.33114   12.50622  -10.08934
   5.39540   12.30002  -10.19894   11.96000  -10.55054   12.47785  -10.55205
   5.40541   12.27411  -10.62831   11.81532  -10.77828   12.26475  -11.01471
   5.41541   12.07243  -11.06722   11.60630  -10.98774   11.88973  -11.39304
   5.42543   11.71108  -11.43289   11.34420  -11.15476   11.41210  -11.62961
   5.43544   11.24379  -11.66560   11.04952  -11.26329   10.90452  -11.70522
   5.44545   10.74020  -11.74201   10.74627  -11.30845   10.43199  -11.63412
   5.45545   10.26475  -11.67207   10.45608  -11.29562   10.04104  -11.45135
   5.46547    9.86505  -11.48730   10.19450  -11.23694    9.75807  -11.20102
   5.47548    9.56961  -11.22907    9.96974  -11.14715    9.59186  -10.92894
   5.48549    9.39007  -10.94117    9.78416  -11.04009    9.53598  -10.67890
   5.49549    9.32396  -10.66618    9.63629  -10.92726    9.56978  -10.48970
   5.50551    9.35570  -10.44329    9.52268  -10.81793    9.65863  -10.39077
   5.51552    9.45638  -10.30525    9.43869  -10.71972    9.75637  -10.39544
   5.52553    9.58424  -10.27255    9.37841  -10.63869    9.81314  -10.49385
   5.53553    9.68937  -10.34584    9.33477  -10.57908    9.78901  -10.65121
   5.54555    9.72480  -10.50064    9.30003  -10.54289    9.66816  -10.81623
   5.55556    9.66159  -10.69053    9.26650  -10.52965    9.46479  -10.93823
   5.56557    9.49984  -10.86089    9.22756  -10.53644    9.21628  -10.98396
   5.57558    9.26787  -10.96742    9.17878  -10.55869    8.96851  -10.94543
   5.58559    9.01008  -10.98914    9.11798  -10.59170    8.76177  -10.83747
   5.59560    8.77136  -10.93044    9.04475  -10.63154    8.62268  -10.69004
   5.60561    8.58562  -10.81500    8.95913  -10.67563    8.56118  -10.54022
   5.61562    8.47058  -10.67716    8.86099  -10.72195    8.57016  -10.42551
   5.62563    8.42653  -10.55418    8.74976  -10.76866    8.62612  -10.37755
   5.63564    8.43694  -10.47956    8.62460  -10.81360    8.69150  -10.41498
   5.64565    8.47055  -10.47615    8.48434  -10.85390    8.72133  -10.53605
   5.65566    8.48675  -10.54901    8.32812  -10.88524    8.67512  -10.71507
   5.66567    8.44586  -10.68089    8.15665  -10.90185    8.53085  -10.90738
   5.67568    8.32227  -10.83475    7.97347  -10.89715    8.29326  -11.06328
   5.68569    8.11414  -10.96519    7.78540  -10.86592    7.99106  -11.14421
   5.69570    7.84338  -11.03371    7.60190  -10.80589    7.66510  -11.13229
   5.70571    7.54620  -11.01966    7.43322  -10.71896    7.35553  -11.03034
   5.71572    7.26071  -10.92232    7.28820  -10.61160    7.09366  -10.85562
   5.72573    7.01813  -10.75613    7.17230  -10.49319    6.89963  -10.63289
   5.73574    6.83924  -10.54413    7.08671  -10.37428    6.78326  -10.38948
   5.74575    6.73462  -10.31296    7.02869  -10.26469    6.74570  -10.15301
   5.75576    6.70576  -10.09007    6.99239  -10.17212    6.78005   -9.95026
   5.76577    6.74554   -9.90224    6.97013  -10.10136    6.87075   -9.80585
   5.77578    6.83775   -9.77380    6.95354  -10.05426    6.99276   -9.73926
   5.78579    6.95642   -9.72334    6.93474  -10.02961    7.11217   -9.75977
   5.79580    7.06704   -9.75835    6.90735  -10.02406    7.19085   -9.86066
   5.80581    7.13193   -9.86967    6.86689  -10.03307    7.19577  -10.01637
   5.81582    7.12006  -10.02957    6.81049  -10.05167    7.11003  -10.18690
   5.82583    7.01769  -10.19724    6.73639  -10.07486    6.93921  -10.32925
   5.83584    6.83354  -10.33086    6.64394  -10.09716    6.70857  -10.41059
   5.84585    6.59464  -10.40016    6.53392  -10.11297    6.45315  -10.41595
   5.85586    6.33603  -10.39292    6.40888  -10.11687    6.20694  -10.34796
   5.86587    6.09054  -10.31367    6.27304  -10.10442    5.99605  -10.22170
   5.87588    5.88267  -10.17826    6.13191  -10.07269    5.83650  -10.05865
   5.88589    5.72709  -10.00812    5.99182  -10.02072    5.73462   -9.88243
  5.895895   5.629282  -9.826219   5.859088  -9.949732   5.688068  -9.716013
  5.905906   5.586624  -9.654835   5.739257  -9.863191   5.686514  -9.579784
  5.915915   5.588955  -9.513725   5.636169  -9.766345   5.712106  -9.488937
  5.925926   5.618940  -9.417774   5.551314  -9.665289   5.741139  -9.450018
  5.935935   5.653488  -9.373684   5.483827  -9.565960   5.748267  -9.457634
  5.945946   5.667659  -9.376667   5.430678  -9.473276   5.713316  -9.493866
  5.955956   5.641216  -9.409623   5.387434  -9.390143   5.628155  -9.532524
  5.965966   5.565432  -9.447031   5.349310  -9.317294   5.499497  -9.547436
  5.975976   5.446185  -9.462928   5.312353  -9.253304   5.345812  -9.520570
  5.985986   5.301195  -9.439026   5.274273  -9.195595   5.190377  -9.445947
  5.995996   5.153325  -9.368880   5.234572  -9.141671   5.054642  -9.328721
  6.006006   5.023890  -9.257206   5.193801  -9.089950   4.954346  -9.181643
  6.016016   4.928645  -9.116513   5.152526  -9.039908   4.898314  -9.021494
  6.026026   4.876361  -8.963479   5.110708  -8.991396   4.888509  -8.866476
  6.036036   4.868793  -8.816274   5.067904  -8.943740   4.920214  -8.734429
  6.046046   4.900797  -8.692547   5.024148  -8.895580   4.981960  -8.640890
  6.056056   4.960372  -8.607356   4.980692  -8.845418   5.055800  -8.596379
  6.066066   5.029168  -8.570216   4.939843  -8.793009   5.119202  -8.602861
  6.076076   5.084820  -8.581653   4.903865  -8.739747   5.149644  -8.650984
  6.086086   5.105922  -8.630863   4.873693  -8.688522   5.131246  -8.720521
  6.096096   5.078630  -8.696878   4.848230  -8.642322   5.060498  -8.785469
  6.106106   5.001768  -8.754265   4.824694  -8.603070   4.947505  -8.822105
  6.116116   4.887124  -8.781116   4.799718  -8.570698   4.811864  -8.815769
  6.126126   4.754725  -8.765128   4.770536  -8.543373   4.675952  -8.763320
  6.136136   4.626256  -8.705243   4.735890  -8.518196   4.559252  -8.671412
  6.146146   4.519817  -8.609535   4.696219  -8.492227   4.475376  -8.553013
  6.156156   4.447409  -8.491712   4.653232  -8.463384   4.431336  -8.424179
  6.166166   4.414376  -8.368052   4.609206  -8.430822   4.427732  -8.301776
  6.176176   4.419582  -8.255240   4.566301  -8.394941   4.458959  -8.201827
  6.186186   4.455559  -8.168518   4.526069  -8.356975   4.513259  -8.137593
  6.196196   4.508777  -8.119446   4.489158  -8.318666   4.573383  -8.116907
  6.206206   4.560863  -8.113062   4.455278  -8.281767   4.618906  -8.139163
  6.216216   4.591841  -8.145132   4.423307  -8.247640   4.630894  -8.193497
  6.226226   4.585448  -8.201485   4.391580  -8.216812   4.597819  -8.260279
  6.236236   4.534618  -8.261067   4.358242  -8.188947   4.519711  -8.316525
  6.246246   4.444065  -8.302284   4.321800  -8.162591   4.407966  -8.342948
  6.256256   4.328239  -8.309533   4.281733  -8.135475   4.280916  -8.329052
  6.266266   4.206068  -8.276709   4.238967  -8.105186   4.157995  -8.274235
  6.276276   4.095540  -8.206860   4.195867  -8.070093   4.055347  -8.185730
  6.286286   4.010356  -8.109565   4.155537  -8.030137   3.983862  -8.075539
  6.296296   3.958686  -7.997998   4.120850  -7.987082   3.948859  -7.957873
  6.306306   3.943141  -7.886740   4.093336  -7.944190   3.950352  -7.847460
  6.316316   3.960971  -7.790229   4.072612  -7.905196   3.983185  -7.758283
  6.326326   4.004089  -7.721336   4.056324  -7.873178   4.036972  -7.702085
  6.336336   4.059251  -7.689349   4.040789  -7.849661   4.096457  -7.686110
  6.346346   4.109261  -7.697384   4.022107  -7.834100   4.143331  -7.710410
  6.356356   4.136096  -7.740068   3.997198  -7.824150   4.160098  -7.766011
  6.366366   4.125751  -7.803293   3.964548  -7.816523   4.135257  -7.835808
  6.376376   4.072958  -7.867349   3.924304  -7.807806   4.067347  -7.898956
  6.386386   3.983041  -7.912756   3.877945  -7.795162   3.965316  -7.937103
  6.396396   3.869664  -7.925908   3.827853  -7.776811   3.844995  -7.939310
  6.406406   3.749996  -7.901807   3.776788  -7.752220   3.723935  -7.903504
  6.416416   3.640014  -7.843488   3.727244  -7.722131   3.617204  -7.834976
  6.426426   3.551659  -7.759531   3.680825  -7.688175   3.535295  -7.743620
  6.436436   3.491928  -7.661440   3.638011  -7.652283   3.483737  -7.641502
  6.446446   3.462953  -7.561696   3.598346  -7.615884   3.463341  -7.541186
  6.456456   3.462288  -7.472400   3.561043  -7.579695   3.470487  -7.454544
  6.466466   3.483109  -7.404012   3.525388  -7.543880   3.497267  -7.391511
  6.476476   3.514570  -7.363745   3.490988  -7.508279   3.531913  -7.358392
  6.486486   3.543055  -7.353582   3.457711  -7.472680   3.560265  -7.355851
  6.496496   3.554847  -7.368746   3.425670  -7.436870   3.568746  -7.377558
  6.506506   3.539958  -7.397921   3.395135  -7.400772   3.548312  -7.410889
  6.516516   3.495496  -7.426089   3.366524  -7.364498   3.497561  -7.440232
  6.526526   3.426631  -7.439121   3.340237  -7.328457   3.423115  -7.451756
  6.536536   3.344495  -7.427893   3.316549  -7.293211   3.337037  -7.437251
  6.546546   3.262359  -7.390069   3.295541  -7.259542   3.252852  -7.395424
  6.556556   3.192150  -7.329450   3.277034  -7.228266   3.182259  -7.330893
  6.566566   3.142349  -7.254062   3.260612  -7.200278   3.133311  -7.252147
  6.576576   3.117243  -7.174172   3.245547  -7.176434   3.109875  -7.169648
  6.586586   3.116801  -7.100715   3.230701  -7.157537   3.111597  -7.094357
  6.596596   3.136711  -7.043990   3.214419  -7.144047   3.133957  -7.036554
  6.606606   3.168516  -7.012164   3.194648  -7.135753   3.168339  -7.004394
  6.616616   3.200297  -7.009404   3.169349  -7.131416   3.202681  -7.002063
  6.626626   3.218566  -7.034019   3.137074  -7.128916   3.223297  -7.027899
  6.636636   3.211496  -7.077689   3.097429  -7.125566   3.218100  -7.073537
  6.646646   3.172582  -7.126894   3.051208  -7.118765   3.180306  -7.125303
  6.656656   3.102883  -7.166633   3.000168  -7.106599   3.110759  -7.167892
  6.666667   3.010405  -7.184786   2.946508  -7.088085   3.017406  -7.188808
  6.676676   2.907133  -7.174969   2.892356  -7.063245   2.912333  -7.181300
  6.686686   2.805429  -7.136934   2.839422  -7.032693   2.808113  -7.144845
  6.696696   2.715436  -7.075149   2.788846  -6.997427   2.715155  -7.083726
  6.706707   2.644001  -6.996849   2.741357  -6.958399   2.640589  -7.005062
  6.716716   2.594598  -6.910442   2.697403  -6.916569   2.588192  -6.917192
  6.726726   2.567623  -6.824468   2.657277  -6.872829   2.558726  -6.828645
  6.736736   2.560652  -6.746911   2.621055  -6.828180   2.550206  -6.747493
  6.746747   2.568551  -6.684497   2.588512  -6.783513   2.558003  -6.680767
  6.756756   2.583730  -6.641688   2.559138  -6.739621   2.574967  -6.633528
  6.766766   2.596967  -6.619440   2.532293  -6.696864   2.592021  -6.607665
  6.776776   2.599164  -6.614288   2.507409  -6.655365   2.599666  -6.600780
  6.786787   2.583791  -6.618594   2.484082  -6.615055   2.590324  -6.606031
  6.796797   2.548985  -6.622405   2.462097  -6.575850   2.560694  -6.613578
  6.806807   2.498104  -6.616393   2.441376  -6.537672   2.512828  -6.613370
  6.816816   2.438373  -6.594471   2.421923  -6.500582   2.453244  -6.598052
  6.826826   2.378439  -6.554947   2.403754  -6.464762   2.390617  -6.564558
  6.836837   2.326121  -6.500104   2.386773  -6.430582   2.333349  -6.514091
  6.846847   2.287054  -6.435012   2.370653  -6.398503   2.287948  -6.451027
  6.856857   2.264149  -6.366197   2.354708  -6.368921   2.258297  -6.381554
  6.866867   2.257539  -6.300639   2.337957  -6.341866   2.245554  -6.312615
  6.876876   2.264627  -6.244853   2.319315  -6.316844   2.248185  -6.251005
  6.886887   2.280247  -6.203974   2.297979  -6.292792   2.262064  -6.202576
  6.896896   2.297146  -6.180640   2.273807  -6.268173   2.280724  -6.171229
  6.906906   2.307178  -6.173895   2.247464  -6.241631   2.296165  -6.157742
  6.916917   2.303254  -6.178808   2.220244  -6.212322   2.300455  -6.158975
  6.926927   2.281504  -6.187356   2.193589  -6.180199   2.287902  -6.168072
  6.936936   2.242585  -6.190643   2.168632  -6.145927   2.256918  -6.176124
  6.946947   2.191343  -6.181487   2.145962  -6.110428   2.210508  -6.174730
  6.956956   2.135082  -6.156169   2.125663  -6.074625   2.155115  -6.158292
  6.966967   2.081383  -6.114744   2.107509  -6.039227   2.098488  -6.125027
  6.976976   2.036526  -6.060294   2.091169  -6.004694   2.047754  -6.076643
  6.986986   2.004674  -5.997762   2.076298  -5.971317   2.008214  -6.017270
  6.996997   1.987708  -5.932962   2.062543  -5.939407   1.982950  -5.952356
  7.007007   1.985271  -5.871863   2.049460  -5.909134   1.972813  -5.887854
  7.017016   1.994828  -5.819933   2.036504  -5.880612   1.976488  -5.829547
  7.027027   2.011771  -5.781433   2.023067  -5.853700   1.990559  -5.782482
  7.037036   2.029784  -5.758508   2.008600  -5.828009   2.009651  -5.750174
  7.047047   2.041830  -5.750269   1.992716  -5.802957   2.027005  -5.733644
  7.057057   2.041764  -5.752448   1.975312  -5.777758   2.035688  -5.730665
  7.067067   2.026167  -5.758119   1.956591  -5.751669   2.030389  -5.735765
  7.077077   1.995481  -5.759544   1.937086  -5.724026   2.009089  -5.741411
  7.087087   1.953796  -5.750378   1.917574  -5.694428   1.973728  -5.740114
  7.097096   1.907389  -5.727195   1.898960  -5.662819   1.929447  -5.726483
  7.107107   1.862903  -5.689834   1.882144  -5.629545   1.882882  -5.698326
  7.117116   1.825946  -5.640787   1.867840  -5.595235   1.840440  -5.656562
  7.127127   1.800370  -5.584237   1.856485  -5.560804   1.807132  -5.604402
  7.137137   1.788100  -5.525225   1.848138  -5.527334   1.786126  -5.546418
  7.147147   1.789154  -5.469007   1.842434  -5.495888   1.778673  -5.487763
  7.157157   1.801679  -5.420584   1.838580  -5.467321   1.784162  -5.433644
  7.167167   1.821969  -5.384117   1.835447  -5.442185   1.800132  -5.388855
  7.177176   1.844648  -5.362158   1.831757  -5.420464   1.822307  -5.357121
  7.187187   1.863318  -5.354784   1.826301  -5.401646   1.844888  -5.340306
  7.197196   1.871830  -5.359018   1.818188  -5.384756   1.861370  -5.337573
  7.207206   1.865957  -5.369092   1.806990  -5.368552   1.865994  -5.344989
  7.217217   1.844761  -5.377777   1.792794  -5.351729   1.855410  -5.356126
  7.227227   1.810893  -5.378393   1.776183  -5.333115   1.829790  -5.363663
  7.237237   1.769619  -5.366518   1.758145  -5.311861   1.792725  -5.361411
  7.247247   1.727213  -5.340727   1.739892  -5.287578   1.749986  -5.345780
  7.257257   1.689443  -5.302322   1.722694  -5.260301   1.707850  -5.316183
  7.267267   1.660691  -5.254504   1.707721  -5.230575   1.671775  -5.274528
  7.277277   1.643653  -5.201554   1.695888  -5.199305   1.645721  -5.224376
  7.287287   1.639331  -5.148178   1.687699  -5.167722   1.631966  -5.170136
  7.297297   1.647105  -5.099081   1.683126  -5.137170   1.631173  -5.116529
  7.307307   1.664743  -5.058572   1.681608  -5.108818   1.642445  -5.068232
  7.317317   1.688439  -5.030020   1.682192  -5.083474   1.663313  -5.029477
  7.327327   1.713049  -5.015154   1.683789  -5.061419   1.689730  -5.003545
  7.337337   1.732831  -5.013328   1.685444  -5.042502   1.716333  -4.992007
  7.347347   1.742692  -5.021195   1.686536  -5.026274   1.737184  -4.993994
  7.357357   1.739658  -5.033228   1.686774  -5.012342   1.747075  -5.005858
  7.367367   1.723865  -5.043132   1.686004  -5.000492   1.743040  -5.021748
  7.377377   1.698470  -5.045655   1.683997  -4.990651   1.725329  -5.035080
  7.387387   1.668555  -5.037935   1.680341  -4.982687   1.697299  -5.040391
  7.397398   1.639574  -5.019915   1.674557  -4.976236   1.664242  -5.034703
  7.407407   1.616073  -4.993915   1.666324  -4.970688   1.631824  -5.017894
  7.417417   1.600906  -4.963816   1.655645  -4.965332   1.604771  -4.992260
  7.427427   1.594931  -4.934192   1.642833  -4.959584   1.586127  -4.961661
  7.437437   1.596963  -4.909531   1.628328  -4.953162   1.576971  -4.930685
  7.447447   1.603919  -4.893432   1.612492  -4.946026   1.576379  -4.903871
  7.457457   1.611233  -4.887825   1.595499  -4.938235   1.581555  -4.885001
  7.467467   1.613700  -4.892279   1.577372  -4.929814   1.588168  -4.876342
  7.477477   1.606756  -4.903777   1.558104  -4.920630   1.591096  -4.877937
  7.487487   1.587832  -4.917306   1.537760  -4.910493   1.585583  -4.887288
  7.497497   1.557190  -4.927211   1.516504  -4.899230   1.568606  -4.899745
  7.507507   1.517754  -4.928821   1.494529  -4.886744   1.539829  -4.909737
  7.517517   1.474088  -4.919561   1.472006  -4.872940   1.501652  -4.912348
  7.527527   1.431052  -4.899241   1.449100  -4.857725   1.458321  -4.904559
  7.537538   1.392756  -4.869629   1.426060  -4.840944   1.414638  -4.885691
  7.547547   1.362014  -4.833758   1.403287  -4.822527   1.374866  -4.857102
  7.557557   1.340156  -4.795256   1.381285  -4.802593   1.342066  -4.821522
  7.567567   1.327079  -4.757825   1.360501  -4.781555   1.317901  -4.782383
  7.577577   1.321321  -4.724840   1.341119  -4.760046   1.302651  -4.743323
  7.587587   1.320185  -4.698868   1.322933  -4.738739   1.295268  -4.707753
  7.597597   1.320033  -4.681208   1.305412  -4.718032   1.293484  -4.678493
  7.607607   1.316871  -4.671412   1.287906  -4.697982   1.293992  -4.657283
  7.617618   1.307237  -4.667170   1.269905  -4.678236   1.292892  -4.644326
  7.627627   1.289160  -4.664737   1.251232  -4.658308   1.286451  -4.637994
  7.637637   1.262735  -4.659909   1.231999  -4.637750   1.272060  -4.635013
  7.647647   1.230000  -4.649173   1.212474  -4.616351   1.248988  -4.631238
  7.657657   1.194215  -4.630521   1.192880  -4.594060   1.218561  -4.622776
  7.667668   1.158890  -4.603640   1.173281  -4.570932   1.183627  -4.606950
  7.677677   1.127052  -4.569646   1.153656  -4.546888   1.147674  -4.582748
  7.687687   1.100829  -4.530555   1.134015  -4.521687   1.113971  -4.550686
  7.697698   1.081351  -4.488822   1.114549  -4.495001   1.085053  -4.512362
  7.707707   1.068791  -4.447003   1.095703  -4.466578   1.062549  -4.469987
  7.717717   1.062427  -4.407466   1.078085  -4.436355   1.047181  -4.426003
  7.727727   1.060721  -4.372141   1.062334  -4.404615   1.038841  -4.382833
  7.737737   1.061469  -4.342232   1.048956  -4.371877   1.036650  -4.342719
  7.747747   1.062097  -4.317896   1.038178  -4.338877   1.038990  -4.307487
  7.757758   1.060180  -4.298082   1.029891  -4.306379   1.043599  -4.278268
  7.767767   1.054070  -4.280683   1.023690  -4.274979   1.047839  -4.255210
  7.777778   1.043381  -4.263051   1.018984  -4.245014   1.049171  -4.237238
  7.787787   1.029090  -4.242762   1.015200  -4.216487   1.045796  -4.222179
  7.797797   1.013174  -4.218255   1.011945  -4.189169   1.037180  -4.207239
  7.807807   0.997999  -4.189134   1.009060  -4.162802   1.024212  -4.189768
  7.817817   0.985733  -4.156105   1.006566  -4.137206   1.008882  -4.167955
  7.827827   0.977953  -4.120668   1.004519  -4.112390   0.993664  -4.141184
  7.837838   0.975453  -4.084786   1.002885  -4.088454   0.980899  -4.109982
  7.847847   0.978186  -4.050574   1.001485  -4.065486   0.972377  -4.075763
  7.857858   0.985256  -4.019987   1.000034  -4.043487   0.969117  -4.040454
  7.867867   0.994982  -3.994521   0.998235  -4.022257   0.971307  -4.006198
  7.877877   1.005090  -3.974852   0.995910  -4.001417   0.978287  -3.975057
  7.887888   1.013109  -3.960546   0.993099  -3.980515   0.988597  -3.948727
  7.897897   1.016965  -3.949993   0.990112  -3.959110   1.000099  -3.928205
  7.907907   1.015597  -3.940707   0.987470  -3.937000   1.010308  -3.913454
  7.917918   1.009316  -3.929983   0.985790  -3.914241   1.016925  -3.903244
  7.927927   0.999708  -3.915656   0.985608  -3.891238   1.018469  -3.895320
  7.937938   0.989132  -3.896638   0.987233  -3.868627   1.014768  -3.886955
  7.947948   0.980079  -3.873062   0.990642  -3.847156   1.007018  -3.875723
  7.957957   0.974634  -3.846108   0.995461  -3.827498   0.997393  -3.860145
  7.967968   0.974158  -3.817665   1.001052  -3.810107   0.988411  -3.839978
  7.977978   0.979128  -3.790002   1.006652  -3.795102   0.982321  -3.816134
  7.987987   0.989094  -3.765431   1.011562  -3.782273   0.980695  -3.790364
  7.997998   1.002669  -3.745985   1.015271  -3.771177   0.984209  -3.764888
  8.008007   1.017624  -3.733056   1.017533  -3.761266   0.992564  -3.742045
  8.018017   1.031169  -3.726975   1.018321  -3.752061   1.004482  -3.723919
  8.028028   1.040477  -3.726740   1.017737  -3.743157   1.017815  -3.711947
  8.038037   1.043402  -3.730042   1.015941  -3.734275   1.029825  -3.706519
  8.048048   1.039132  -3.733753   1.013096  -3.725179   1.037731  -3.706685
  8.058058   1.028461  -3.734742   1.009405  -3.715675   1.039420  -3.710202
  8.068068   1.013520  -3.730705   1.005146  -3.705595   1.034097  -3.714006
  8.078078   0.997125  -3.720655   1.000671  -3.694882   1.022541  -3.715039
  8.088088   0.982058  -3.704962   0.996354  -3.683689   1.006852  -3.711055
  8.098097   0.970517  -3.685066   0.992434  -3.672327   0.989797  -3.701103
  8.108108   0.963827  -3.663079   0.988943  -3.661209   0.974096  -3.685563
  8.118117   0.962337  -3.641387   0.985674  -3.650701   0.961898  -3.665867
  8.128128   0.965407  -3.622299   0.982250  -3.640976   0.954484  -3.644094
  8.138138   0.971481  -3.607701   0.978269  -3.631980   0.952170  -3.622594
  8.148148   0.978261  -3.598676   0.973406  -3.623478   0.954302  -3.603614
  8.158158   0.983080  -3.595183   0.967504  -3.615124   0.959330  -3.588972
  8.168168   0.983480  -3.595893   0.960581  -3.606517   0.964995  -3.579692
  8.178178   0.977876  -3.598394   0.952796  -3.597397   0.968698  -3.575673
  8.188188   0.966032  -3.599775   0.944382  -3.587554   0.968078  -3.575567
  8.198197   0.949121  -3.597398   0.935574  -3.576916   0.961655  -3.576989
  8.208207   0.929330  -3.589553   0.926564  -3.565495   0.949274  -3.577103
  8.218218   0.909224  -3.575719   0.917467  -3.553319   0.932137  -3.573372
  8.228228   0.891176  -3.556484   0.908353  -3.540369   0.912412  -3.564167
  8.238238   0.876980  -3.533229   0.899292  -3.526559   0.892613  -3.549021
  8.248248   0.867704  -3.507791   0.890449  -3.511727   0.875067  -3.528517
  8.258258   0.863651  -3.482167   0.882135  -3.495755   0.861554  -3.503996
  8.268268   0.864396  -3.458275   0.874806  -3.478625   0.853184  -3.477244
  8.278277   0.868834  -3.437735   0.868983  -3.460550   0.850373  -3.450239
  8.288287   0.875298  -3.421609   0.865117  -3.442015   0.852859  -3.424949
  8.298298   0.881795  -3.410162   0.863449  -3.423693   0.859724  -3.403162
  8.308308   0.886400  -3.402728   0.863930  -3.406344   0.869422  -3.386272
  8.318318   0.887744  -3.397790   0.866210  -3.390674   0.879912  -3.375007
  8.328328   0.885413  -3.393380   0.869692  -3.377221   0.888930  -3.369187
  8.338338   0.880057  -3.387659   0.873641  -3.366241   0.894464  -3.367620
  8.348349   0.873143  -3.379451   0.877309  -3.357720   0.895270  -3.368291
  8.358357   0.866462  -3.368549   0.880035  -3.351398   0.891236  -3.368860
  8.368367   0.861607  -3.355684   0.881327  -3.346825   0.883390  -3.367319
  8.378378   0.859567  -3.342278   0.880886  -3.343512   0.873527  -3.362513
  8.388388   0.860503  -3.330093   0.878617  -3.340919   0.863648  -3.354362
  8.398398   0.863681  -3.320815   0.874577  -3.338578   0.855407  -3.343742
  8.408408   0.867561  -3.315655   0.868920  -3.336170   0.849757  -3.332172
  8.418418   0.870073  -3.314971   0.861827  -3.333452   0.846761  -3.321399
  8.428429   0.869086  -3.318047   0.853447  -3.330288   0.845600  -3.312981
  8.438438   0.862991  -3.323142   0.843882  -3.326550   0.844738  -3.307897
  8.448447   0.851195  -3.327882   0.833200  -3.322115   0.842264  -3.306225
  8.458458   0.834307  -3.329891   0.821459  -3.316828   0.836395  -3.307033
  8.468468   0.813935  -3.327401   0.808749  -3.310457   0.826007  -3.308548
  8.478477   0.792194  -3.319598   0.795229  -3.302757   0.810993  -3.308623
  8.488488   0.771183  -3.306646   0.781171  -3.293472   0.792292  -3.305333
  8.498498   0.752608  -3.289473   0.766972  -3.282428   0.771590  -3.297446
  8.508509   0.737581  -3.269471   0.753121  -3.269566   0.750833  -3.284615
  8.518518   0.726578  -3.248227   0.740115  -3.255043   0.731822  -3.267305
  8.528528   0.719462  -3.227293   0.728383  -3.239166   0.715933  -3.246562
  8.538538   0.715546  -3.208002   0.718209  -3.222363   0.704015  -3.223761
  8.548548   0.713701  -3.191282   0.709715  -3.205138   0.696380  -3.200410
  8.558558   0.712533  -3.177485   0.702849  -3.187950   0.692824  -3.177994
  8.568568   0.710660  -3.166291   0.697432  -3.171181   0.692655  -3.157827
  8.578578   0.707051  -3.156775   0.693208  -3.155128   0.694741  -3.140916
  8.588589   0.701300  -3.147645   0.689884  -3.139963   0.697610  -3.127765
  8.598598   0.693732  -3.137643   0.687184  -3.125761   0.699668  -3.118231
  8.608608   0.685249  -3.125906   0.684857  -3.112547   0.699517  -3.111459
  8.618618   0.677025  -3.112188   0.682688  -3.100307   0.696308  -3.106042
  8.628628   0.670156  -3.096877   0.680468  -3.089006   0.689974  -3.100356
  8.638638   0.665383  -3.080833   0.677985  -3.078569   0.681225  -3.093002
  8.648648   0.662934  -3.065167   0.675026  -3.068885   0.671302  -3.083144
  8.658658   0.662477  -3.050985   0.671399  -3.059751   0.661608  -3.070662
  8.668669   0.663173  -3.039126   0.666984  -3.050882   0.653362  -3.056076
  8.678679   0.663836  -3.029945   0.661775  -3.041971   0.647366  -3.040359
  8.688688   0.663209  -3.023161   0.655899  -3.032680   0.643884  -3.024694
  8.698699   0.660308  -3.017879   0.649607  -3.022791   0.642629  -3.010234
  8.708708   0.654729  -3.012811   0.643229  -3.012195   0.642824  -2.997882
  8.718718   0.646773  -3.006638   0.637114  -3.000903   0.643348  -2.988079
  8.728728   0.637345  -2.998387   0.631569  -2.989083   0.642989  -2.980673
  8.738738   0.627680  -2.987671   0.626822  -2.977032   0.640757  -2.974928
  8.748748   0.618999  -2.974729   0.622984  -2.965086   0.636174  -2.969705
  8.758759   0.612251  -2.960306   0.620020  -2.953650   0.629417  -2.963803
  8.768768   0.607944  -2.945479   0.617733  -2.943108   0.621237  -2.956321
  8.778779   0.606075  -2.931428   0.615755  -2.933745   0.612699  -2.946885
  8.788789   0.606124  -2.919250   0.613600  -2.925696   0.604863  -2.935718
  8.798798   0.607117  -2.909737   0.610737  -2.918840   0.598504  -2.923513
  8.808808   0.607769  -2.903185   0.606729  -2.912848   0.593950  -2.911241
  8.818818   0.606739  -2.899269   0.601330  -2.907220   0.591009  -2.899914
  8.828828   0.602946  -2.897042   0.594540  -2.901427   0.589009  -2.890339
  8.838839   0.595872  -2.895136   0.586565  -2.895013   0.586929  -2.882914
  8.848848   0.585704  -2.892107   0.577742  -2.887700   0.583631  -2.877480
  8.858859   0.573259  -2.886797   0.568433  -2.879351   0.578159  -2.873304
  8.868869   0.559725  -2.878592   0.558966  -2.869986   0.570028  -2.869248
  8.878879   0.546345  -2.867463   0.549591  -2.859699   0.559367  -2.864067
  8.888888   0.534165  -2.853874   0.540478  -2.848632   0.546872  -2.856740
  8.898898   0.523881  -2.838613   0.531723  -2.836921   0.533592  -2.846701
  8.908908   0.515786  -2.822596   0.523371  -2.824683   0.520654  -2.833901
  8.918919   0.509784  -2.806713   0.515435  -2.811990   0.509037  -2.818734
  8.928928   0.505442  -2.791690   0.507941  -2.798867   0.499441  -2.801899
  8.938939   0.502089  -2.777958   0.500945  -2.785353   0.492232  -2.784244
  8.948949   0.498966  -2.765588   0.494547  -2.771466   0.487443  -2.766655
  8.958959   0.495413  -2.754267   0.488866  -2.757292   0.484793  -2.749936
  8.968968   0.491052  -2.743408   0.484010  -2.742979   0.483732  -2.734716
  8.978978   0.485887  -2.732343   0.480040  -2.728714   0.483513  -2.721354
  8.988988   0.480289  -2.720526   0.476952  -2.714712   0.483320  -2.709855
  8.998999   0.474856  -2.707715   0.474668  -2.701200   0.482438  -2.699858
  9.009008   0.470228  -2.694024   0.473050  -2.688358   0.480432  -2.690731
  9.019018   0.466909  -2.679878   0.471916  -2.676313   0.477252  -2.681743
  9.029029   0.465145  -2.665912   0.471064  -2.665138   0.473221  -2.672290
  9.039039   0.464858  -2.652843   0.470284  -2.654885   0.468901  -2.662071
  9.049048   0.465642  -2.641305   0.469357  -2.645529   0.464882  -2.651140
  9.059058   0.466802  -2.631720   0.468050  -2.637025   0.461607  -2.639860
  9.069068   0.467475  -2.624159   0.466120  -2.629258   0.459232  -2.628771
  9.079079   0.466811  -2.618265   0.463341  -2.621994   0.457591  -2.618412
  9.089088   0.464196  -2.613306   0.459562  -2.614916   0.456234  -2.609167
  9.099098   0.459428  -2.608315   0.454768  -2.607610   0.454541  -2.601118
  9.109109   0.452780  -2.602344   0.449122  -2.599680   0.451912  -2.593990
  9.119119   0.444921  -2.594700   0.442957  -2.590822   0.447962  -2.587210
  9.129129   0.436720  -2.585065   0.436719  -2.580868   0.442654  -2.580058
  9.139139   0.429056  -2.573531   0.430873  -2.569889   0.436332  -2.571883
  9.149148   0.422653  -2.560507   0.425820  -2.558112   0.429615  -2.562283
  9.159159   0.417996  -2.546623   0.421833  -2.545898   0.423233  -2.551194
  9.169168   0.415299  -2.532618   0.419024  -2.533674   0.417862  -2.538882
  9.179178   0.414499  -2.519249   0.417346  -2.521862   0.413996  -2.525865
  9.189189   0.415260  -2.507203   0.416607  -2.510837   0.411882  -2.512814
  9.199199   0.417004  -2.497011   0.416512  -2.500882   0.411491  -2.500460
  9.209209   0.418969  -2.488945   0.416699  -2.492151   0.412506  -2.489484
  9.219219   0.420320  -2.482942   0.416776  -2.484688   0.414348  -2.480423
  9.229229   0.420316  -2.478576   0.416365  -2.478392   0.416232  -2.473551
  9.239239   0.418489  -2.475136   0.415136  -2.473059   0.417286  -2.468795
  9.249249   0.414759  -2.471792   0.412861  -2.468376   0.416723  -2.465691
  9.259258   0.409431  -2.467823   0.409443  -2.463969   0.414035  -2.463467
  9.269269   0.403081  -2.462783   0.404938  -2.459480   0.409120  -2.461204
  9.279279   0.396358  -2.456582   0.399522  -2.454635   0.402303  -2.458072
  9.289289   0.389802  -2.449448   0.393434  -2.449284   0.394213  -2.453526
  9.299299   0.383713  -2.441808   0.386902  -2.443382   0.385592  -2.447383
  9.309309   0.378110  -2.434139   0.380093  -2.436996   0.377109  -2.439813
  9.319319   0.372748  -2.426819   0.373088  -2.430206   0.369224  -2.431223
  9.329329   0.367219  -2.420014   0.365903  -2.423066   0.362124  -2.422133
  9.339338   0.361082  -2.413620   0.358514  -2.415598   0.355725  -2.413034
  9.349349   0.354019  -2.407292   0.350903  -2.407757   0.349728  -2.404273
  9.359359   0.345946  -2.400554   0.343084  -2.399483   0.343714  -2.395977
  9.369369   0.337038  -2.392943   0.335113  -2.390695   0.337277  -2.388025
  9.379379   0.327670  -2.384141   0.327082  -2.381336   0.330142  -2.380087
  9.389389   0.318311  -2.374043   0.319109  -2.371387   0.322259  -2.371740
  9.399399   0.309404  -2.362757   0.311308  -2.360859   0.313802  -2.362591
  9.409409   0.301286  -2.350546   0.303787  -2.349803   0.305114  -2.352386
  9.419418   0.294146  -2.337761   0.296636  -2.338274   0.296603  -2.341058
  9.429429   0.288016  -2.324768   0.289920  -2.326358   0.288654  -2.328716
  9.439439   0.282789  -2.311893   0.283688  -2.314150   0.281559  -2.315605
  9.449449   0.278251  -2.299368   0.277971  -2.301733   0.275491  -2.302040
  9.459459   0.274129  -2.287299   0.272776  -2.289203   0.270494  -2.288362
  9.469469   0.270160  -2.275656   0.268098  -2.276658   0.266495  -2.274898
  9.479480   0.266152  -2.264293   0.263909  -2.264172   0.263311  -2.261918
  9.489489   0.262030  -2.253006   0.260164  -2.251846   0.260678  -2.249603
  9.499498   0.257849  -2.241602   0.256798  -2.239725   0.258285  -2.238011
  9.509509   0.253754  -2.229964   0.253738  -2.227864   0.255834  -2.227065
  9.519519   0.249929  -2.218088   0.250903  -2.216282   0.253097  -2.216572
  9.529529   0.246529  -2.206067   0.248214  -2.204977   0.249976  -2.206263
  9.539539   0.243637  -2.194071   0.245599  -2.193929   0.246509  -2.195872
  9.549549   0.241240  -2.182300   0.242994  -2.183101   0.242858  -2.185208
  9.559559   0.239223  -2.170924   0.240351  -2.172443   0.239238  -2.174189
  9.569570   0.237394  -2.160043   0.237641  -2.161881   0.235860  -2.162857
  9.579579   0.235530  -2.149655   0.234864  -2.151358   0.232877  -2.151344
  9.589589   0.233427  -2.139643   0.232045  -2.140780   0.230349  -2.139830
  9.599599   0.230965  -2.129800   0.229241  -2.130115   0.228240  -2.128498
  9.609609   0.228143  -2.119890   0.226521  -2.119338   0.226432  -2.117482
  9.619619   0.225074  -2.109701   0.223952  -2.108456   0.224753  -2.106835
  9.629629   0.221954  -2.099113   0.221584  -2.097519   0.223034  -2.096518
  9.639639   0.219009  -2.088109   0.219447  -2.086567   0.221150  -2.086401
  9.649650   0.216437  -2.076770   0.217543  -2.075653   0.219067  -2.076313
  9.659659   0.214382  -2.065255   0.215864  -2.064812   0.216849  -2.066090
  9.669669   0.212906  -2.053759   0.214395  -2.054080   0.214638  -2.055628
  9.679679   0.211984  -2.042489   0.213121  -2.043476   0.212606  -2.044911
  9.689689   0.211512  -2.031620   0.212024  -2.033024   0.210915  -2.034009
  9.699699   0.211318  -2.021269   0.211086  -2.022736   0.209672  -2.023062
  9.709709   0.211194  -2.011472   0.210280  -2.012630   0.208910  -2.012248
  9.719719   0.210936  -2.002162   0.209576  -2.002719   0.208578  -2.001740
  9.729730   0.210395  -1.993183   0.208943  -1.992992   0.208552  -1.991680
  9.739739   0.209516  -1.984329   0.208353  -1.983448   0.208648  -1.982134
  9.749749   0.208355  -1.975397   0.207786  -1.974060   0.208672  -1.973079
  9.759759   0.207057  -1.966242   0.207231  -1.964806   0.208456  -1.964398
  9.769769   0.205818  -1.956813   0.206683  -1.955666   0.207917  -1.955903
  9.779779   0.204826  -1.947157   0.206145  -1.946597   0.207076  -1.947390
  9.789789   0.204225  -1.937405   0.205640  -1.937587   0.206055  -1.938695
  9.799799   0.204083  -1.927734   0.205210  -1.928603   0.205041  -1.929739
  9.809810   0.204382  -1.918337   0.204911  -1.919654   0.204238  -1.920542
  9.819819   0.205022  -1.909376   0.204807  -1.910777   0.203816  -1.911225
  9.829829   0.205842  -1.900959   0.204942  -1.902046   0.203877  -1.901973
  9.839839   0.206652  -1.893103   0.205325  -1.893564   0.204434  -1.893004
  9.849849   0.207279  -1.885745   0.205909  -1.885454   0.205400  -1.884540
  9.859859   0.207611  -1.878752   0.206601  -1.877796   0.206596  -1.876751
  9.869869   0.207622  -1.871975   0.207263  -1.870644   0.207772  -1.869727
  9.879879   0.207360  -1.865291   0.207747  -1.863984   0.208647  -1.863439
  9.889890   0.206914  -1.858647   0.207914  -1.857755   0.208970  -1.857732
  9.899899   0.206360  -1.852063   0.207659  -1.851835   0.208580  -1.852349
  9.909909   0.205724  -1.845602   0.206925  -1.846083   0.207452  -1.846991
  9.919920   0.204960  -1.839323   0.205710  -1.840343   0.205698  -1.841385
  9.929930   0.203974  -1.833243   0.204066  -1.834478   0.203533  -1.835353
  9.939939   0.202658  -1.827302   0.202096  -1.828368   0.201207  -1.828842
  9.949949   0.200945  -1.821372   0.199934  -1.821961   0.198946  -1.821917
  9.959959   0.198850  -1.815289   0.197717  -1.815254   0.196903  -1.814724
  9.969970   0.196470  -1.808911   0.195558  -1.808306   0.195132  -1.807450
  9.979980   0.193968  -1.802164   0.193529  -1.801202   0.193595  -1.800264
  9.989989   0.191523  -1.795057   0.191649  -1.794045   0.192177  -1.793283
  10.00000    0.18928   -1.78769    0.18990   -1.78692    0.19073   -1.78654
# 
# 04/04/2015 at 20:50 YAMBO @ cresco4x287.portici.enea.it [start]
# 04/04/2015 at 20:53                                     [end]
#  
# Timing   [Min/Max/Average]: 02m-38s/02m-43s/02m-41s
#
# .-Input file : yambo.in
# | optics                       # [R OPT] Optics
# | bse                          # [R BSE] Bethe Salpeter Equation.
# | bsk                          # [R BSK] Bethe Salpeter Equation kernel
# | bss                          # [R BSS] Bethe Salpeter Equation solver
# | BoseTemp= 0.000000     eV    # Bosonic Temperature
# | FFTGvecs=  869         RL    # [FFT] Plane-waves
# | BS_CPU= "16.4.4"             # [PARALLEL] CPUs for each role
# | BS_ROLEs= "k.eh.t"           # [PARALLEL] CPUs roles (k,eh,t)
# | BS_nCPU_invert= 256          # [PARALLEL] CPUs for matrix inversion
# | BS_nCPU_diago= 256           # [PARALLEL] CPUs for matrix diagonalization
# | BSEmod= "causal"             # [BSE] resonant/causal/x_coupling/xc_coupling
# | BSKmod= "SEX"                # [BSE] IP/Hartree/HF/ALDA/SEX
# | BSSmod= "h"                  # [BSS] (h)aydock/(d)iagonalization/(i)nversion/(t)ddft`
# | BSENGexx= 10           Ry    # [BSK] Exchange components
# | BSENGBlk= 1            Ry    # [BSK] Screened interaction block size
# | % KfnQP_E
# |  0.500000 | 1.000000 | 1.000000 |        # [EXTQP BSK BSS] E parameters  (c/v) eV|adim|adim
# | %
# | % BEnRange
# |   0.00000 | 10.00000 | eV    # [BSS] Energy range
# | %
# | % BDmRange
# |   0.05000 |  0.10000 | eV    # [BSS] Damping range
# | %
# | BEnSteps= 1000               # [BSS] Energy steps
# | % BLongDir
# | 0.1000E-4 | 0.000    | 0.000    |        # [BSS] [cc] Electric Field
# | %
# | % BSEBands
# |   3 | 12 |                   # [BSK] Bands range
# | %
