#                                                           
#  /$$     /$$ /$$$$$$  /$$      /$$ /$$$$$$$   /$$$$$$     
# |  $$   /$$//$$__  $$| $$$    /$$$| $$__  $$ /$$__  $$    
#  \  $$ /$$/| $$  \ $$| $$$$  /$$$$| $$  \ $$| $$  \ $$    
#   \  $$$$/ | $$$$$$$$| $$ $$/$$ $$| $$$$$$$ | $$  | $$    
#    \  $$/  | $$__  $$| $$  $$$| $$| $$__  $$| $$  | $$    
#     | $$   | $$  | $$| $$\  $ | $$| $$  \ $$| $$  | $$    
#     | $$   | $$  | $$| $$ \/  | $$| $$$$$$$/|  $$$$$$/    
#     |__/   |__/  |__/|__/     |__/|_______/  \______/     
#                                                           
# GPL Version 4.4.0 Revision 148. (Based on r.16920 h.961a8d
#                  MPI+SLK+OpenMP Build                     
#               http://www.yambo-code.org                   
#
# Absorption @ Q(1) [q->0 direction] :0.1000E-4  0.000     0.000   
#
#
# - Energies      are  Analyt. E
# - Wavefunctions are +AMGB (for 2D systems)(C)
#
# - The Green`s function is Retarded -
# - Using the Length Gauge -
# - [r,Vnl] *is* included -
#
#
#    E/ev[1]      EPS-Im[2]    EPS-Re[3]    EPSo-Im[4]   EPSo-Re[5]
#
     0.00000      0.00000     12.82247      0.00000     12.04811
   0.1001E-1    0.1898E-2     12.82       0.1550E-2     12.05   
   0.2002E-1    0.3796E-2     12.82       0.3100E-2     12.05   
   0.3003E-1    0.5694E-2     12.82       0.4651E-2     12.05   
   0.4004E-1    0.7593E-2     12.82       0.6202E-2     12.05   
   0.5005E-1    0.9493E-2     12.82       0.7753E-2     12.05   
   0.6006E-1    0.1139E-1     12.83       0.9305E-2     12.05   
   0.7007E-1    0.1330E-1     12.83       0.1086E-1     12.05   
   0.8008E-1    0.1520E-1     12.83       0.1241E-1     12.05   
     0.09009      0.01710     12.83014      0.01397     12.05438
     0.10010      0.01901     12.83195      0.01552     12.05586
     0.11011      0.02092     12.83394      0.01708     12.05748
     0.12012      0.02283     12.83612      0.01864     12.05927
     0.13013      0.02474     12.83849      0.02020     12.06120
     0.14014      0.02665     12.84106      0.02176     12.06330
     0.15015      0.02857     12.84381      0.02332     12.06555
     0.16016      0.03049     12.84676      0.02489     12.06795
     0.17017      0.03241     12.84990      0.02646     12.07052
     0.18018      0.03434     12.85323      0.02803     12.07324
     0.19019      0.03627     12.85675      0.02960     12.07611
     0.20020      0.03820     12.86046      0.03118     12.07915
     0.21021      0.04014     12.86438      0.03275     12.08234
     0.22022      0.04208     12.86847      0.03433     12.08568
     0.23023      0.04402     12.87277      0.03592     12.08919
     0.24024      0.04597     12.87726      0.03750     12.09286
     0.25025      0.04793     12.88194      0.03909     12.09668
     0.26026      0.04988     12.88682      0.04069     12.10066
     0.27027      0.05185     12.89190      0.04228     12.10480
     0.28028      0.05381     12.89717      0.04388     12.10910
     0.29029      0.05579     12.90264      0.04549     12.11356
     0.30030      0.05777     12.90830      0.04709     12.11818
     0.31031      0.05975     12.91417      0.04871     12.12296
     0.32032      0.06174     12.92022      0.05032     12.12790
     0.33033      0.06374     12.92648      0.05194     12.13301
     0.34034      0.06574     12.93295      0.05357     12.13827
     0.35035      0.06775     12.93960      0.05520     12.14370
     0.36036      0.06977     12.94646      0.05683     12.14929
     0.37037      0.07179     12.95353      0.05847     12.15505
     0.38038      0.07382     12.96079      0.06011     12.16096
     0.39039      0.07586     12.96826      0.06176     12.16705
     0.40040      0.07790     12.97593      0.06342     12.17329
     0.41041      0.07995     12.98380      0.06508     12.17971
     0.42042      0.08201     12.99188      0.06674     12.18628
     0.43043      0.08408     13.00016      0.06842     12.19303
     0.44044      0.08616     13.00866      0.07009     12.19994
     0.45045      0.08825     13.01735      0.07178     12.20702
     0.46046      0.09034     13.02626      0.07347     12.21427
     0.47047      0.09245     13.03538      0.07516     12.22169
     0.48048      0.09456     13.04471      0.07687     12.22927
     0.49049      0.09668     13.05425      0.07858     12.23703
     0.50050      0.09882     13.06400      0.08030     12.24496
     0.51051      0.10096     13.07396      0.08202     12.25306
     0.52052      0.10311     13.08414      0.08375     12.26133
     0.53053      0.10528     13.09454      0.08549     12.26978
     0.54054      0.10745     13.10515      0.08724     12.27840
     0.55055      0.10964     13.11598      0.08899     12.28719
     0.56056      0.11184     13.12702      0.09075     12.29616
     0.57057      0.11405     13.13829      0.09252     12.30530
     0.58058      0.11627     13.14978      0.09430     12.31463
     0.59059      0.11850     13.16149      0.09609     12.32413
     0.60060      0.12075     13.17342      0.09789     12.33381
     0.61061      0.12300     13.18557      0.09969     12.34366
     0.62062      0.12527     13.19795      0.10151     12.35370
     0.63063      0.12756     13.21057      0.10333     12.36392
     0.64064      0.12986     13.22340      0.10516     12.37433
     0.65065      0.13217     13.23647      0.10701     12.38491
     0.66066      0.13449     13.24977      0.10886     12.39569
     0.67067      0.13684     13.26330      0.11072     12.40664
     0.68068      0.13919     13.27707      0.11259     12.41778
     0.69069      0.14156     13.29107      0.11448     12.42911
     0.70070      0.14395     13.30531      0.11637     12.44063
     0.71071      0.14635     13.31978      0.11828     12.45234
     0.72072      0.14876     13.33450      0.12019     12.46424
     0.73073      0.15120     13.34946      0.12212     12.47633
     0.74074      0.15365     13.36466      0.12406     12.48861
     0.75075      0.15611     13.38011      0.12601     12.50109
     0.76076      0.15860     13.39580      0.12797     12.51376
     0.77077      0.16110     13.41174      0.12995     12.52662
     0.78078      0.16362     13.42793      0.13193     12.53969
     0.79079      0.16615     13.44437      0.13393     12.55295
     0.80080      0.16871     13.46107      0.13595     12.56642
     0.81081      0.17128     13.47802      0.13797     12.58008
     0.82082      0.17388     13.49523      0.14001     12.59395
     0.83083      0.17649     13.51270      0.14206     12.60802
     0.84084      0.17913     13.53043      0.14413     12.62230
     0.85085      0.18178     13.54842      0.14621     12.63678
     0.86086      0.18446     13.56669      0.14831     12.65148
     0.87087      0.18715     13.58521      0.15042     12.66638
     0.88088      0.18987     13.60401      0.15254     12.68149
     0.89089      0.19261     13.62308      0.15468     12.69682
     0.90090      0.19538     13.64242      0.15683     12.71235
     0.91091      0.19816     13.66204      0.15901     12.72811
     0.92092      0.20097     13.68194      0.16119     12.74408
     0.93093      0.20380     13.70212      0.16340     12.76027
     0.94094      0.20666     13.72258      0.16562     12.77668
     0.95095      0.20954     13.74333      0.16785     12.79332
     0.96096      0.21245     13.76436      0.17011     12.81017
     0.97097      0.21538     13.78569      0.17238     12.82726
     0.98098      0.21834     13.80731      0.17467     12.84457
     0.99099      0.22133     13.82923      0.17697     12.86210
     1.00100      0.22434     13.85144      0.17930     12.87987
     1.01101      0.22738     13.87396      0.18164     12.89788
     1.02102      0.23045     13.89677      0.18400     12.91611
     1.03103      0.23355     13.91990      0.18639     12.93458
     1.04104      0.23667     13.94334      0.18879     12.95330
     1.05105      0.23983     13.96709      0.19121     12.97225
     1.06106      0.24301     13.99115      0.19365     12.99144
     1.07107      0.24623     14.01553      0.19612     13.01088
     1.08108      0.24948     14.04024      0.19860     13.03056
     1.09109      0.25276     14.06527      0.20111     13.05050
     1.10110      0.25607     14.09063      0.20363     13.07068
     1.11111      0.25942     14.11631      0.20618     13.09112
     1.12112      0.26279     14.14234      0.20876     13.11181
     1.13113      0.26621     14.16869      0.21135     13.13276
     1.14114      0.26966     14.19540      0.21397     13.15396
     1.15115      0.27314     14.22244      0.21661     13.17544
     1.16116      0.27666     14.24984      0.21928     13.19717
     1.17117      0.28022     14.27759      0.22197     13.21917
     1.18118      0.28382     14.30569      0.22469     13.24144
     1.19119      0.28745     14.33415      0.22743     13.26399
     1.20120      0.29113     14.36298      0.23020     13.28680
     1.21121      0.29484     14.39217      0.23300     13.30990
     1.22122      0.29859     14.42173      0.23582     13.33327
     1.23123      0.30239     14.45167      0.23867     13.35693
     1.24124      0.30623     14.48199      0.24154     13.38087
     1.25125      0.31011     14.51269      0.24445     13.40509
     1.26126      0.31403     14.54378      0.24738     13.42961
     1.27127      0.31800     14.57526      0.25035     13.45443
     1.28128      0.32202     14.60714      0.25334     13.47954
     1.29129      0.32608     14.63942      0.25636     13.50494
     1.30130      0.33019     14.67211      0.25942     13.53065
     1.31131      0.33435     14.70521      0.26250     13.55667
     1.32132      0.33855     14.73871      0.26562     13.58299
     1.33133      0.34281     14.77265      0.26877     13.60963
     1.34134      0.34712     14.80701      0.27196     13.63658
     1.35135      0.35148     14.84180      0.27517     13.66385
     1.36136      0.35589     14.87702      0.27843     13.69144
     1.37137      0.36036     14.91269      0.28171     13.71936
     1.38138      0.36488     14.94880      0.28504     13.74760
     1.39139      0.36946     14.98536      0.28839     13.77618
     1.40140      0.37410     15.02239      0.29179     13.80510
     1.41141      0.37879     15.05987      0.29522     13.83435
     1.42142      0.38355     15.09782      0.29870     13.86395
     1.43143      0.38837     15.13625      0.30221     13.89389
     1.44144      0.39324     15.17516      0.30576     13.92418
     1.45145      0.39819     15.21455      0.30935     13.95483
     1.46146      0.40319     15.25444      0.31298     13.98584
     1.47147      0.40827     15.29484      0.31665     14.01721
     1.48148      0.41341     15.33573      0.32037     14.04895
     1.49149      0.41862     15.37714      0.32413     14.08106
     1.50150      0.42390     15.41907      0.32794     14.11355
     1.51151      0.42925     15.46153      0.33178     14.14642
     1.52152      0.43467     15.50452      0.33568     14.17966
     1.53153      0.44017     15.54805      0.33962     14.21331
     1.54154      0.44574     15.59213      0.34361     14.24734
     1.55155      0.45140     15.63677      0.34765     14.28178
     1.56156      0.45713     15.68197      0.35174     14.31661
     1.57157      0.46294     15.72775      0.35588     14.35186
     1.58158      0.46884     15.77410      0.36007     14.38752
     1.59159      0.47482     15.82105      0.36431     14.42360
     1.60160      0.48089     15.86859      0.36861     14.46010
     1.61161      0.48704     15.91673      0.37296     14.49703
     1.62162      0.49329     15.96549      0.37736     14.53439
     1.63163      0.49963     16.01488      0.38183     14.57220
     1.64164      0.50606     16.06489      0.38635     14.61045
     1.65165      0.51259     16.11555      0.39093     14.64916
     1.66166      0.51922     16.16686      0.39556     14.68832
     1.67167      0.52594     16.21883      0.40026     14.72794
     1.68168      0.53277     16.27147      0.40503     14.76804
     1.69169      0.53971     16.32479      0.40985     14.80861
     1.70170      0.54675     16.37881      0.41474     14.84966
     1.71171      0.55390     16.43353      0.41970     14.89120
     1.72172      0.56117     16.48895      0.42473     14.93323
     1.73173      0.56854     16.54511      0.42982     14.97577
     1.74174      0.57604     16.60200      0.43498     15.01882
     1.75175      0.58366     16.65963      0.44022     15.06238
     1.76176      0.59140     16.71803      0.44553     15.10646
     1.77177      0.59926     16.77719      0.45091     15.15108
     1.78178      0.60725     16.83714      0.45637     15.19623
     1.79179      0.61538     16.89789      0.46191     15.24193
     1.80180      0.62364     16.95945      0.46752     15.28817
     1.81181      0.63204     17.02183      0.47322     15.33498
     1.82182      0.64057     17.08504      0.47900     15.38236
     1.83183      0.64926     17.14910      0.48486     15.43032
     1.84184      0.65809     17.21404      0.49081     15.47886
     1.85185      0.66707     17.27985      0.49685     15.52799
     1.86186      0.67621     17.34655      0.50298     15.57773
     1.87187      0.68551     17.41417      0.50920     15.62808
     1.88188      0.69497     17.48271      0.51552     15.67905
     1.89189      0.70459     17.55219      0.52193     15.73065
     1.90190      0.71439     17.62263      0.52843     15.78289
     1.91191      0.72436     17.69404      0.53504     15.83577
     1.92192      0.73452     17.76645      0.54175     15.88932
     1.93193      0.74485     17.83986      0.54857     15.94354
     1.94194      0.75538     17.91430      0.55549     15.99843
     1.95195      0.76610     17.98980      0.56252     16.05402
     1.96196      0.77702     18.06636      0.56966     16.11031
     1.97197      0.78814     18.14400      0.57692     16.16731
     1.98198      0.79947     18.22274      0.58429     16.22503
     1.99199      0.81102     18.30262      0.59179     16.28349
     2.00200      0.82278     18.38364      0.59940     16.34269
     2.01201      0.83478     18.46583      0.60714     16.40266
     2.02202      0.84700     18.54922      0.61501     16.46339
     2.03203      0.85947     18.63382      0.62301     16.52491
     2.04204      0.87217     18.71965      0.63115     16.58723
     2.05205      0.88513     18.80675      0.63942     16.65036
     2.06206      0.89835     18.89513      0.64783     16.71430
     2.07207      0.91184     18.98483      0.65638     16.77909
     2.08208      0.92559     19.07586      0.66508     16.84473
     2.09209      0.93963     19.16825      0.67393     16.91124
     2.10210      0.95396     19.26205      0.68294     16.97863
     2.11211      0.96858     19.35726      0.69210     17.04691
     2.12212      0.98351     19.45392      0.70143     17.11611
     2.13213      0.99875     19.55206      0.71092     17.18623
     2.14214      1.01431     19.65172      0.72058     17.25731
     2.15215      1.03021     19.75291      0.73042     17.32934
     2.16216      1.04645     19.85568      0.74043     17.40235
     2.17217      1.06304     19.96006      0.75063     17.47635
     2.18218      1.07999     20.06609      0.76102     17.55137
     2.19219      1.09732     20.17378      0.77159     17.62742
     2.20220      1.11503     20.28320      0.78237     17.70453
     2.21221      1.13313     20.39436      0.79335     17.78271
     2.22222      1.15165     20.50732      0.80453     17.86197
     2.23223      1.17059     20.62211      0.81593     17.94235
     2.24224      1.18996     20.73877      0.82755     18.02387
     2.25225      1.20977     20.85735      0.83939     18.10653
     2.26226      1.23005     20.97788      0.85146     18.19038
     2.27227      1.25081     21.10043      0.86377     18.27542
     2.28228      1.27206     21.22501      0.87632     18.36168
     2.29229      1.29381     21.35170      0.88912     18.44919
     2.30230      1.31609     21.48053      0.90218     18.53798
     2.31231      1.33891     21.61156      0.91550     18.62805
     2.32232      1.36229     21.74484      0.92909     18.71945
     2.33233      1.38625     21.88043      0.94296     18.81220
     2.34234      1.41081     22.01838      0.95711     18.90632
     2.35235      1.43598     22.15874      0.97156     19.00185
     2.36236      1.46179     22.30159      0.98632     19.09881
     2.37237      1.48826     22.44698      1.00138     19.19724
     2.38238      1.51541     22.59497      1.01676     19.29715
     2.39239      1.54328     22.74562      1.03248     19.39860
     2.40240      1.57187     22.89902      1.04853     19.50159
     2.41241      1.60122     23.05523      1.06493     19.60618
     2.42242      1.63136     23.21432      1.08169     19.71239
     2.43243      1.66231     23.37638      1.09882     19.82026
     2.44244      1.69411     23.54146      1.11633     19.92983
     2.45245      1.72678     23.70967      1.13424     20.04113
     2.46246      1.76036     23.88108      1.15255     20.15420
     2.47247      1.79488     24.05578      1.17128     20.26908
     2.48248      1.83037     24.23386      1.19043     20.38582
     2.49249      1.86689     24.41541      1.21003     20.50445
     2.50250      1.90445     24.60054      1.23009     20.62501
     2.51251      1.94311     24.78933      1.25062     20.74755
     2.52252      1.98291     24.98190      1.27164     20.87213
     2.53253      2.02390     25.17836      1.29316     20.99878
     2.54254      2.06611     25.37881      1.31520     21.12754
     2.55255      2.10961     25.58339      1.33778     21.25849
     2.56256      2.15444     25.79220      1.36091     21.39166
     2.57257      2.20066     26.00537      1.38461     21.52712
     2.58258      2.24833     26.22304      1.40891     21.66491
     2.59259      2.29750     26.44534      1.43381     21.80509
     2.60260      2.34825     26.67242      1.45935     21.94772
     2.61261      2.40064     26.90441      1.48555     22.09287
     2.62262      2.45474     27.14149      1.51242     22.24060
     2.63263      2.51062     27.38381      1.53999     22.39096
     2.64264      2.56838     27.63154      1.56828     22.54405
     2.65265      2.62808     27.88484      1.59733     22.69991
     2.66266      2.68983     28.14392      1.62716     22.85862
     2.67267      2.75371     28.40896      1.65779     23.02026
     2.68268      2.81982     28.68014      1.68926     23.18491
     2.69269      2.88828     28.95769      1.72160     23.35264
     2.70270      2.95918     29.24182      1.75483     23.52354
     2.71271      3.03265     29.53276      1.78900     23.69770
     2.72272      3.10881     29.83074      1.82413     23.87520
     2.73273      3.18780     30.13601      1.86027     24.05614
     2.74274      3.26976     30.44884      1.89746     24.24062
     2.75275      3.35484     30.76950      1.93573     24.42874
     2.76276      3.44319     31.09828      1.97513     24.62059
     2.77277      3.53499     31.43545      2.01570     24.81628
     2.78278      3.63042     31.78136      2.05749     25.01594
     2.79279      3.72968     32.13631      2.10055     25.21966
     2.80280      3.83296     32.50068      2.14493     25.42759
     2.81281      3.94048     32.87479      2.19068     25.63983
     2.82282      4.05250     33.25906      2.23787     25.85652
     2.83283      4.16924     33.65387      2.28656     26.07780
     2.84284      4.29099     34.05965      2.33680     26.30380
     2.85285      4.41803     34.47684      2.38866     26.53469
     2.86286      4.55067     34.90590      2.44222     26.77060
     2.87287      4.68924     35.34735      2.49756     27.01169
     2.88288      4.83411     35.80169      2.55474     27.25814
     2.89289      4.98565     36.26947      2.61385     27.51012
     2.90290      5.14427     36.75126      2.67499     27.76781
     2.91291      5.31043     37.24768      2.73824     28.03139
     2.92292      5.48460     37.75938      2.80370     28.30107
     2.93293      5.66730     38.28705      2.87147     28.57705
     2.94294      5.85910     38.83138      2.94168     28.85954
     2.95295      6.06060     39.39318      3.01443     29.14878
     2.96296      6.27245     39.97321      3.08984     29.44499
     2.97297      6.49539     40.57237      3.16806     29.74842
     2.98298      6.73017     41.19155      3.24922     30.05933
     2.99299      6.97766     41.83172      3.33346     30.37799
     3.00300      7.23877     42.49387      3.42096     30.70468
     3.01301      7.51450     43.17916      3.51187     31.03971
     3.02302      7.80596     43.88868      3.60637     31.38336
     3.03303      8.11434     44.62370      3.70466     31.73599
     3.04304      8.44097     45.38548      3.80694     32.09792
     3.05305      8.78729     46.17547      3.91343     32.46953
     3.06306      9.15489     46.99508      4.02436     32.85117
     3.07307      9.54552     47.84592      4.13998     33.24327
     3.08308      9.96111     48.72964      4.26056     33.64621
     3.09309     10.40379     49.64805      4.38638     34.06047
     3.10310     10.87593     50.60303      4.51775     34.48648
     3.11311     11.38015     51.59658      4.65500     34.92475
     3.12312     11.91935     52.63087      4.79849     35.37579
     3.13313     12.49676     53.70815      4.94859     35.84013
     3.14314     13.11602     54.83086      5.10571     36.31837
     3.15315     13.78113     56.00152      5.27030     36.81108
     3.16316     14.49664     57.22290      5.44284     37.31894
     3.17317     15.26760     58.49780      5.62383     37.84259
     3.18318     16.09973     59.82927      5.81383     38.38277
     3.19319     16.99944     61.22042      6.01346     38.94023
     3.20320     17.97402     62.67460      6.22336     39.51577
     3.21321     19.03165     64.19513      6.44423     40.11024
     3.22322     20.18172     65.78555      6.67687     40.72454
     3.23323     21.43477     67.44931      6.92209     41.35962
     3.24324     22.80296     69.18996      7.18083     42.01652
     3.25325     24.30004     71.01083      7.45407     42.69629
     3.26326     25.94190     72.91511      7.74291     43.40009
     3.27327     27.74659     74.90543      8.04854     44.12912
     3.28328     29.73502     76.98390      8.37228     44.88470
     3.29329     31.93109     79.15152      8.71554     45.66817
     3.30330     34.36248     81.40798      9.07994     46.48103
     3.31331     37.06089     83.75079      9.46718     47.32481
     3.32332     40.06310     86.17486      9.87921     48.20119
     3.33333     43.41116     88.67089     10.31812     49.11190
     3.34334     47.15355     91.22440     10.78629     50.05885
     3.35335     51.34568     93.81364     11.28630     51.04403
     3.36336     56.05021     96.40680     11.82106     52.06955
     3.37337     61.33790     98.95912     12.39378     53.13768
      3.3834      67.2865     101.4080      13.0080      54.2508
      3.3934      73.9802     103.6681      13.6679      55.4114
      3.4034      81.5058     105.6238      14.3778      56.6223
      3.4134      89.9473     107.1216      15.1428      57.8862
      3.4234      99.3770     107.9614      15.9687      59.2061
      3.4334     109.8382     107.8878      16.8617      60.5852
      3.4434     121.3234     106.5845      17.8292      62.0266
      3.4535     133.7418     103.6771      18.8793      63.5337
      3.4635     146.8815      98.7478      20.0213      65.1101
      3.4735     160.3644      91.3748      21.2659      66.7591
      3.4835     173.6156      81.1998      22.6250      68.4841
      3.4935     185.8607      68.0269      24.1124      70.2884
      3.5035     196.1815      51.9329      25.7440      72.1752
      3.5135     203.6366      33.3613      27.5378      74.1470
      3.5235     207.4459      13.1387      29.5146      76.2058
      3.5335     207.1771      -7.6149      31.6982      78.3524
      3.5435     202.8615     -27.6812      34.1164      80.5864
      3.5536     194.9856     -45.9691      36.8007      82.9052
      3.5636     184.3616     -61.6994      39.7879      85.3033
      3.5736     171.9373     -74.4790      43.1198      87.7710
      3.5836     158.6178     -84.2730      46.8449      90.2938
      3.5936     145.1531     -91.3047      51.0184      92.8492
      3.6036     132.0919     -95.9454      55.7026      95.4048
      3.6136     119.7872     -98.6201      60.9680      97.9151
      3.6236     108.4340     -99.7420      66.8919     100.3166
      3.6336      98.1097     -99.6787      73.5573     102.5225
      3.6436      88.8140     -98.7384      81.0496     104.4157
      3.6537      80.4976     -97.1689      89.4515     105.8413
      3.6637      73.0870     -95.1638      98.8312     106.5972
      3.6737      66.4971     -92.8711     109.2280     106.4261
      3.6837      60.6414     -90.4022     120.6272     105.0111
      3.6937      55.4359     -87.8389     132.9308     101.9783
      3.7037      50.8040     -85.2412     145.9147      96.9144
      3.7137      46.6760     -82.6522     159.1889      89.4069
      3.7237      42.9903     -80.1020     172.1672      79.1151
      3.7337      39.6923     -77.6113     184.0717      65.8666
      3.7437      36.7345     -75.1938     193.9882      49.7712
      3.7538      34.0754     -72.8582     200.9984      31.3029
      3.7638      31.6793     -70.6094     204.3612      11.3107
      3.7738      29.5147     -68.4491     203.6935      -9.0862
      3.7838      27.5547     -66.3777     199.0731     -28.6896
      3.7938      25.7756     -64.3939     191.0182     -46.4505
      3.8038      24.1572     -62.4958     180.3502     -61.6381
      3.8138      22.6816     -60.6802     168.0035     -73.9053
      3.8238      21.3332     -58.9441     154.8582     -83.2465
      3.8338      20.0985     -57.2842     141.6334     -89.9010
      3.8438      18.9657     -55.6969     128.8487     -94.2434
      3.8539      17.9244     -54.1786     116.8340     -96.6927
      3.8639      16.9654     -52.7259     105.7678     -97.6523
     3.87387     16.08068    -51.33549     95.71761    -97.47842
     3.88388     15.26314    -50.00389     86.67590    -96.46800
     3.89389     14.50652    -48.72804     78.59216    -94.85929
     3.90390     13.80527    -47.50495     71.39194    -92.83791
     3.91391     13.15450    -46.33181     64.99136    -90.54556
     3.92392     12.54977    -45.20581     59.30466    -88.08817
     3.93393     11.98725    -44.12447     54.25071    -85.54420
     3.94394     11.46347    -43.08539     49.75446    -82.97066
     3.95395     10.97542    -42.08632     45.74847    -80.40847
     3.96396     10.52031    -41.12508     42.17238    -77.88602
     3.97397     10.09577    -40.19976     38.97362    -75.42303
     3.98398      9.69967    -39.30854     36.10610    -73.03234
     3.99399      9.33013    -38.44971     33.52983    -70.72204
     4.00400      8.98550    -37.62170     31.20981    -68.49628
     4.01401      8.66434    -36.82311     29.11597    -66.35694
     4.02402      8.36543    -36.05273     27.22217    -64.30396
     4.03403      8.08770    -35.30949     25.50578    -62.33606
     4.04404      7.83023    -34.59248     23.94701    -60.45081
     4.05405      7.59223    -33.90105     22.52883    -58.64547
     4.06406      7.37301    -33.23482     21.23641    -56.91681
     4.07407      7.17187    -32.59369     20.05686    -55.26147
     4.08408      6.98805    -31.97783     18.97884    -53.67582
     4.09409      6.82064    -31.38782     17.99262    -52.15643
     4.10410      6.66834    -30.82453     17.08972    -50.69991
     4.11411      6.52932    -30.28901     16.26264    -49.30277
     4.12412      6.40104    -29.78239     15.50501    -47.96191
     4.13413      6.28006    -29.30545     14.81128    -46.67429
     4.14414      6.16212    -28.85817     14.17671    -45.43713
     4.15415      6.04239    -28.43917     13.59719    -44.24771
     4.16416      5.91616    -28.04543     13.06932    -43.10371
     4.17417      5.77967    -27.67223     12.59030    -42.00308
     4.18418      5.63092    -27.31370     12.15787    -40.94409
     4.19419      5.47012    -26.96369     11.77023    -39.92526
     4.20420      5.29950    -26.61694     11.42609    -38.94575
     4.21421      5.12268    -26.26972     11.12454    -38.00519
     4.22422      4.94372    -25.92013     10.86499    -37.10394
     4.23423      4.76636    -25.56781     10.64701    -36.24308
     4.24424      4.59362    -25.21356     10.47015    -35.42477
     4.25425      4.42758    -24.85878     10.33364    -34.65229
     4.26426      4.26947    -24.50505     10.23593    -33.93022
     4.27427      4.11983    -24.15384     10.17406    -33.26425
     4.28428      3.97874    -23.80649     10.14293    -32.66111
     4.29429      3.84594    -23.46401     10.13446    -32.12775
     4.30430      3.72102    -23.12717     10.13691    -31.67017
     4.31431      3.60343    -22.79653     10.13478    -31.29143
     4.32432      3.49262    -22.47244     10.10968    -30.98964
     4.33433      3.38806    -22.15510     10.04261    -30.75607
     4.34434      3.28923    -21.84464      9.91737    -30.57460
     4.35435      3.19564    -21.54103      9.72420    -30.42328
     4.36436      3.10685    -21.24424      9.46217    -30.27786
     4.37437      3.02248    -20.95418      9.13932    -30.11624
     4.38438      2.94217    -20.67069      8.77024    -29.92204
     4.39439      2.86560    -20.39365      8.37258    -29.68637
     4.40440      2.79249    -20.12290      7.96347    -29.40731
     4.41441      2.72259    -19.85826      7.55727    -29.08822
     4.42442      2.65566    -19.59955      7.16445    -28.73546
     4.43443      2.59151    -19.34661      6.79179    -28.35663
     4.44444      2.52994    -19.09924      6.44294    -27.95924
     4.45445      2.47080    -18.85730      6.11926    -27.55000
     4.46446      2.41394    -18.62060      5.82053    -27.13444
     4.47447      2.35920    -18.38898      5.54562    -26.71704
     4.48448      2.30648    -18.16229      5.29288    -26.30117
     4.49449      2.25566    -17.94040      5.06044    -25.88942
     4.50450      2.20663    -17.72311      4.84640    -25.48354
     4.51451      2.15930    -17.51031      4.64893    -25.08485
     4.52452      2.11357    -17.30186      4.46635    -24.69419
     4.53453      2.06938    -17.09765      4.29712    -24.31210
     4.54454      2.02664    -16.89751      4.13986    -23.93885
     4.55455      1.98528    -16.70135      3.99334    -23.57459
     4.56456      1.94524    -16.50903      3.85648    -23.21929
     4.57457      1.90646    -16.32046      3.72835    -22.87289
     4.58458      1.86887    -16.13551      3.60809    -22.53520
     4.59459      1.83244    -15.95409      3.49497    -22.20604
     4.60460      1.79710    -15.77609      3.38835    -21.88517
     4.61461      1.76282    -15.60143      3.28764    -21.57237
     4.62462      1.72954    -15.43000      3.19235    -21.26736
     4.63463      1.69724    -15.26171      3.10203    -20.96990
     4.64464      1.66586    -15.09649      3.01628    -20.67974
     4.65465      1.63538    -14.93424      2.93475    -20.39661
     4.66466      1.60576    -14.77489      2.85711    -20.12026
     4.67467      1.57696    -14.61835      2.78310    -19.85046
     4.68468      1.54897    -14.46457      2.71245    -19.58699
     4.69469      1.52174    -14.31345      2.64494    -19.32960
     4.70470      1.49526    -14.16492      2.58036    -19.07809
     4.71471      1.46950    -14.01894      2.51853    -18.83225
     4.72472      1.44443    -13.87543      2.45928    -18.59188
     4.73473      1.42004    -13.73432      2.40246    -18.35678
     4.74474      1.39630    -13.59556      2.34792    -18.12678
     4.75475      1.37320    -13.45910      2.29555    -17.90169
     4.76476      1.35072    -13.32487      2.24522    -17.68136
     4.77477      1.32884    -13.19282      2.19684    -17.46560
     4.78478      1.30754    -13.06289      2.15031    -17.25428
     4.79479      1.28683    -12.93505      2.10555    -17.04723
     4.80480      1.26668    -12.80925      2.06247    -16.84434
     4.81481      1.24709    -12.68544      2.02101    -16.64544
     4.82482      1.22805    -12.56359      1.98110    -16.45041
     4.83483      1.20955    -12.44365      1.94269    -16.25911
     4.84484      1.19158    -12.32561      1.90572    -16.07145
     4.85485      1.17415    -12.20942      1.87017    -15.88729
     4.86486      1.15724    -12.09508      1.83598    -15.70652
     4.87487      1.14084    -11.98258      1.80313    -15.52904
     4.88488      1.12494    -11.87192      1.77159    -15.35474
     4.89489      1.10951    -11.76308      1.74136    -15.18353
     4.90490      1.09451    -11.65609      1.71241    -15.01531
     4.91491      1.07988    -11.55095      1.68476    -14.85001
     4.92492      1.06555    -11.44764      1.65841    -14.68753
     4.93493      1.05141    -11.34616      1.63337    -14.52782
     4.94494      1.03737    -11.24644      1.60968    -14.37079
     4.95495      1.02332    -11.14840      1.58738    -14.21642
     4.96496      1.00918    -11.05189      1.56650    -14.06465
     4.97497      0.99493    -10.95677      1.54713    -13.91547
     4.98498      0.98058    -10.86290      1.52933    -13.76889
     4.99499      0.96619    -10.77015      1.51319    -13.62495
     5.00500      0.95184    -10.67841      1.49880    -13.48371
     5.01501      0.93761    -10.58766      1.48627    -13.34530
     5.02502      0.92360    -10.49786      1.47567    -13.20990
     5.03503      0.90985    -10.40903      1.46709    -13.07778
     5.04504      0.89641    -10.32118      1.46052    -12.94927
     5.05505      0.88330    -10.23432      1.45591    -12.82479
     5.06506      0.87053    -10.14849      1.45302    -12.70486
     5.07507      0.85809    -10.06369      1.45145    -12.59003
     5.08508      0.84598     -9.97993      1.45055    -12.48080
     5.09509      0.83418     -9.89719      1.44935    -12.37756
     5.10510      0.82268     -9.81550      1.44666    -12.28039
     5.11511      0.81147     -9.73484      1.44113    -12.18893
     5.12512      0.80053     -9.65519      1.43150    -12.10226
     5.13514      0.78985     -9.57655      1.41684    -12.01899
     5.14514      0.77942     -9.49890      1.39680    -11.93742
     5.15515      0.76922     -9.42223      1.37170    -11.85582
     5.16516      0.75925     -9.34651      1.34245    -11.77280
     5.17518      0.74949     -9.27174      1.31030    -11.68748
     5.18518      0.73994     -9.19791      1.27655    -11.59949
     5.19519      0.73058     -9.12499      1.24238    -11.50892
     5.20520      0.72142     -9.05296      1.20872    -11.41617
     5.21522      0.71244     -8.98182      1.17619    -11.32178
     5.22522      0.70364     -8.91154      1.14519    -11.22631
     5.23523      0.69501     -8.84212      1.11590    -11.13028
     5.24524      0.68655     -8.77353      1.08836    -11.03415
     5.25526      0.67824     -8.70576      1.06252    -10.93828
     5.26526      0.67010     -8.63880      1.03830    -10.84296
     5.27527      0.66210     -8.57263      1.01557    -10.74839
     5.28528      0.65425     -8.50723      0.99421    -10.65475
     5.29530      0.64655     -8.44261      0.97408    -10.56214
     5.30531      0.63898     -8.37873      0.95507    -10.47063
     5.31531      0.63156     -8.31559      0.93707    -10.38028
     5.32533      0.62426     -8.25318      0.91997    -10.29111
     5.33534      0.61709     -8.19148      0.90370    -10.20314
     5.34535      0.61005     -8.13049      0.88816    -10.11637
     5.35536      0.60314     -8.07018      0.87329    -10.03079
    5.365365     0.596339    -8.010544     0.859041    -9.946386
    5.375375     0.589661    -7.951576     0.845347    -9.863149
    5.385385     0.583099    -7.893265     0.832166    -9.781064
    5.395395     0.576649    -7.835596     0.819457    -9.700103
    5.405405     0.570311    -7.778563     0.807184    -9.620243
    5.415415     0.564081    -7.722153     0.795317    -9.541471
    5.425425     0.557958    -7.666351     0.783825    -9.463754
    5.435435     0.551941    -7.611153     0.772686    -9.387076
    5.445445     0.546027    -7.556544     0.761877    -9.311414
    5.455455     0.540214    -7.502522     0.751379    -9.236747
    5.465465     0.534503    -7.449071     0.741173    -9.163049
    5.475475     0.528890    -7.396180     0.731244    -9.090301
    5.485486     0.523376    -7.343849     0.721579    -9.018482
    5.495495     0.517959    -7.292062     0.712164    -8.947576
    5.505505     0.512638    -7.240808     0.702987    -8.877556
    5.515515     0.507414    -7.190088     0.694040    -8.808412
    5.525526     0.502286    -7.139885     0.685311    -8.740115
    5.535535     0.497254    -7.090194     0.676794    -8.672658
    5.545545     0.492319    -7.041010     0.668480    -8.606012
    5.555555     0.487481    -6.992321     0.660363    -8.540168
    5.565566     0.482742    -6.944123     0.652435    -8.475105
    5.575575     0.478103    -6.896409     0.644694    -8.410813
    5.585585     0.473566    -6.849172     0.637132    -8.347268
    5.595595     0.469135    -6.802403     0.629746    -8.284456
    5.605606     0.464812    -6.756105     0.622533    -8.222368
    5.615615     0.460602    -6.710275     0.615489    -8.160987
    5.625625     0.456509    -6.664904     0.608613    -8.100293
    5.635635     0.452537    -6.619999     0.601902    -8.040278
    5.645645     0.448691    -6.575563     0.595355    -7.980928
    5.655655     0.444977    -6.531598     0.588972    -7.922225
    5.665665     0.441396    -6.488119     0.582754    -7.864162
    5.675675     0.437949    -6.445133     0.576701    -7.806721
    5.685685     0.434632    -6.402667     0.570816    -7.749897
    5.695695     0.431433    -6.360736     0.565101    -7.693672
    5.705706     0.428330    -6.319369     0.559561    -7.638037
    5.715715     0.425289    -6.278585     0.554202    -7.582980
    5.725725     0.422261    -6.238404     0.549031    -7.528500
    5.735735     0.419183    -6.198823     0.544055    -7.474581
    5.745746     0.415989    -6.159814     0.539286    -7.421219
    5.755755     0.412614    -6.121331     0.534736    -7.368408
    5.765765     0.409013    -6.083302     0.530419    -7.316154
    5.775775     0.405173    -6.045629     0.526353    -7.264449
    5.785786     0.401110    -6.008229     0.522556    -7.213307
    5.795795     0.396873    -5.971028     0.519050    -7.162738
    5.805805     0.392524    -5.933984     0.515858    -7.112764
    5.815815     0.388129    -5.897076     0.513001    -7.063415
    5.825826     0.383746    -5.860303     0.510500    -7.014731
    5.835836     0.379420    -5.823687     0.508370    -6.966775
    5.845845     0.375182    -5.787253     0.506614    -6.919624
    5.855855     0.371050    -5.751024     0.505215    -6.873366
    5.865866     0.367031    -5.715026     0.504126    -6.828109
    5.875876     0.363129    -5.679276     0.503259    -6.783969
    5.885885     0.359339    -5.643791     0.502471    -6.741055
    5.895895     0.355657    -5.608582     0.501563    -6.699432
    5.905906     0.352076    -5.573658     0.500285    -6.659110
    5.915915     0.348590    -5.539025     0.498363    -6.620005
    5.925926     0.345192    -5.504681     0.495549    -6.581909
    5.935935     0.341875    -5.470628     0.491670    -6.544533
    5.945946     0.338634    -5.436870     0.486679    -6.507522
    5.955956     0.335464    -5.403404     0.480663    -6.470537
    5.965966     0.332359    -5.370226     0.473821    -6.433311
    5.975976     0.329316    -5.337338     0.466413    -6.395676
    5.985986     0.326331    -5.304732     0.458706    -6.357582
    5.995996     0.323401    -5.272410     0.450934    -6.319058
    6.006006     0.320523    -5.240363     0.443276    -6.280191
    6.016016     0.317694    -5.208592     0.435853    -6.241094
    6.026026     0.314912    -5.177093     0.428738    -6.201883
    6.036036     0.312175    -5.145863     0.421965    -6.162663
    6.046046     0.309481    -5.114896     0.415538    -6.123523
    6.056056     0.306828    -5.084190     0.409449    -6.084538
    6.066066     0.304216    -5.053742     0.403678    -6.045762
    6.076076     0.301643    -5.023551     0.398200    -6.007240
    6.086086     0.299107    -4.993611     0.392990    -5.968999
    6.096096     0.296608    -4.963918     0.388022    -5.931064
    6.106106     0.294144    -4.934472     0.383273    -5.893448
    6.116116     0.291714    -4.905265     0.378722    -5.856164
    6.126126     0.289319    -4.876297     0.374349    -5.819213
    6.136136     0.286956    -4.847566     0.370137    -5.782601
    6.146146     0.284626    -4.819066     0.366071    -5.746326
    6.156156     0.282328    -4.790797     0.362137    -5.710389
    6.166166     0.280060    -4.762754     0.358325    -5.674784
    6.176176     0.277824    -4.734936     0.354624    -5.639513
    6.186186     0.275617    -4.707338     0.351024    -5.604568
    6.196196     0.273441    -4.679957     0.347520    -5.569945
    6.206206     0.271294    -4.652793     0.344102    -5.535642
    6.216216     0.269176    -4.625841     0.340767    -5.501652
    6.226226     0.267087    -4.599100     0.337508    -5.467974
    6.236236     0.265027    -4.572566     0.334321    -5.434599
    6.246246     0.262995    -4.546235     0.331201    -5.401523
    6.256256     0.260992    -4.520109     0.328146    -5.368743
    6.266266     0.259018    -4.494181     0.325151    -5.336256
    6.276276     0.257072    -4.468450     0.322215    -5.304053
    6.286286     0.255156    -4.442912     0.319334    -5.272132
    6.296296     0.253269    -4.417567     0.316506    -5.240489
    6.306306     0.251411    -4.392414     0.313730    -5.209121
    6.316316     0.249584    -4.367447     0.311003    -5.178020
    6.326326     0.247787    -4.342666     0.308324    -5.147185
    6.336336     0.246022    -4.318068     0.305691    -5.116611
    6.346346     0.244291    -4.293653     0.303103    -5.086293
    6.356356     0.242593    -4.269416     0.300560    -5.056230
    6.366366     0.240931    -4.245355     0.298059    -5.026415
    6.376376     0.239306    -4.221472     0.295601    -4.996846
    6.386386     0.237721    -4.197762     0.293184    -4.967520
    6.396396     0.236178    -4.174228     0.290809    -4.938431
    6.406406     0.234680    -4.150867     0.288474    -4.909578
    6.416416     0.233230    -4.127681     0.286180    -4.880956
    6.426426     0.231832    -4.104671     0.283926    -4.852561
    6.436436     0.230490    -4.081840     0.281712    -4.824393
    6.446446     0.229207    -4.059192     0.279539    -4.796444
    6.456456     0.227988    -4.036733     0.277408    -4.768715
    6.466466     0.226835    -4.014473     0.275317    -4.741200
    6.476476     0.225749    -3.992422     0.273270    -4.713898
    6.486486     0.224729    -3.970594     0.271266    -4.686805
    6.496496     0.223769    -3.949010     0.269307    -4.659917
    6.506506     0.222856    -3.927685     0.267395    -4.633233
    6.516516     0.221969    -3.906639     0.265532    -4.606750
    6.526526     0.221076    -3.885886     0.263720    -4.580467
    6.536536     0.220137    -3.865431     0.261963    -4.554381
    6.546546     0.219107    -3.845263     0.260264    -4.528490
    6.556556     0.217940    -3.825354     0.258627    -4.502793
    6.566566     0.216602    -3.805654     0.257058    -4.477292
    6.576576     0.215080    -3.786108     0.255561    -4.451986
    6.586586     0.213381    -3.766659     0.254143    -4.426878
    6.596596     0.211534    -3.747250     0.252811    -4.401974
    6.606606     0.209581    -3.727848     0.251573    -4.377278
    6.616616     0.207569    -3.708442     0.250435    -4.352802
    6.626626     0.205539    -3.689031     0.249405    -4.328558
    6.636636     0.203525    -3.669627     0.248489    -4.304564
    6.646646     0.201551    -3.650248     0.247688    -4.280846
    6.656656     0.199630    -3.630914     0.246998    -4.257432
    6.666667     0.197770    -3.611642     0.246407    -4.234353
    6.676676     0.195974    -3.592449     0.245890    -4.211650
    6.686686     0.194241    -3.573347     0.245403    -4.189357
    6.696696     0.192567    -3.554346     0.244887    -4.167499
    6.706707     0.190948    -3.535455     0.244264    -4.146084
    6.716716     0.189380    -3.516676     0.243447    -4.125089
    6.726726     0.187860    -3.498016     0.242354    -4.104458
    6.736736     0.186382    -3.479475     0.240925    -4.084100
    6.746747     0.184943    -3.461056     0.239137    -4.063905
    6.756756     0.183539    -3.442759     0.237011    -4.043763
    6.766766     0.182168    -3.424584     0.234604    -4.023582
    6.776776     0.180827    -3.406532     0.231999    -4.003304
    6.786787     0.179513    -3.388600     0.229282    -3.982905
    6.796797     0.178225    -3.370790     0.226529    -3.962392
    6.806807     0.176961    -3.353098     0.223803    -3.941791
    6.816816     0.175718    -3.335527     0.221144    -3.921138
    6.826826     0.174497    -3.318074     0.218580    -3.900469
    6.836837     0.173294    -3.300734     0.216121    -3.879817
    6.846847     0.172111    -3.283512     0.213773    -3.859215
    6.856857     0.170945    -3.266402     0.211532    -3.838686
    6.866867     0.169795    -3.249407     0.209393    -3.818250
    6.876876     0.168662    -3.232522     0.207348    -3.797920
    6.886887     0.167544    -3.215747     0.205389    -3.777705
    6.896896     0.166441    -3.199082     0.203508    -3.757618
    6.906906     0.165352    -3.182525     0.201697    -3.737660
    6.916917     0.164277    -3.166073     0.199950    -3.717834
    6.926927     0.163216    -3.149730     0.198261    -3.698144
    6.936936     0.162168    -3.133490     0.196623    -3.678592
    6.946947     0.161133    -3.117352     0.195032    -3.659173
    6.956956     0.160110    -3.101317     0.193484    -3.639894
    6.966967     0.159100    -3.085382     0.191975    -3.620748
    6.976976     0.158102    -3.069548     0.190502    -3.601738
    6.986986     0.157117    -3.053812     0.189061    -3.582862
    6.996997     0.156143    -3.038175     0.187651    -3.564117
    7.007007     0.155181    -3.022633     0.186269    -3.545504
    7.017016     0.154231    -3.007190     0.184914    -3.527020
    7.027027     0.153293    -2.991838     0.183583    -3.508662
    7.037036     0.152367    -2.976580     0.182276    -3.490433
    7.047047     0.151453    -2.961415     0.180990    -3.472328
    7.057057     0.150551    -2.946342     0.179726    -3.454345
    7.067067     0.149661    -2.931360     0.178481    -3.436486
    7.077077     0.148784    -2.916466     0.177255    -3.418746
    7.087087     0.147919    -2.901663     0.176048    -3.401126
    7.097096     0.147068    -2.886946     0.174858    -3.383623
    7.107107     0.146230    -2.872314     0.173685    -3.366235
    7.117116     0.145406    -2.857771     0.172528    -3.348963
    7.127127     0.144596    -2.843312     0.171388    -3.331804
    7.137137     0.143802    -2.828937     0.170263    -3.314758
    7.147147     0.143024    -2.814644     0.169153    -3.297822
    7.157157     0.142264    -2.800434     0.168058    -3.280994
    7.167167     0.141521    -2.786306     0.166977    -3.264277
    7.177176     0.140799    -2.772261     0.165911    -3.247665
    7.187187     0.140097    -2.758296     0.164860    -3.231158
    7.197196     0.139419    -2.744413     0.163822    -3.214756
    7.207206     0.138766    -2.730611     0.162799    -3.198459
    7.217217     0.138141    -2.716892     0.161790    -3.182261
    7.227227     0.137546    -2.703259     0.160795    -3.166165
    7.237237     0.136984    -2.689709     0.159814    -3.150168
    7.247247     0.136459    -2.676251     0.158848    -3.134270
    7.257257     0.135972    -2.662887     0.157897    -3.118471
    7.267267     0.135527    -2.649623     0.156960    -3.102766
    7.277277     0.135125    -2.636469     0.156039    -3.087156
    7.287287     0.134765    -2.623435     0.155134    -3.071641
    7.297297     0.134446    -2.610531     0.154245    -3.056219
    7.307307     0.134158    -2.597775     0.153374    -3.040890
    7.317317     0.133889    -2.585178     0.152521    -3.025650
    7.327327     0.133619    -2.572754     0.151687    -3.010502
    7.337337     0.133320    -2.560509     0.150874    -2.995443
    7.347347     0.132961    -2.548440     0.150083    -2.980474
    7.357357     0.132508    -2.536531     0.149315    -2.965594
    7.367367     0.131932    -2.524753     0.148573    -2.950803
    7.377377     0.131219    -2.513064     0.147859    -2.936100
    7.387387     0.130369    -2.501424     0.147176    -2.921490
    7.397398     0.129399    -2.489790     0.146526    -2.906969
    7.407407     0.128337    -2.478136     0.145912    -2.892545
    7.417417     0.127216    -2.466449     0.145338    -2.878219
    7.427427     0.126068    -2.454723     0.144807    -2.863996
    7.437437     0.124920    -2.442967     0.144320    -2.849884
    7.447447     0.123792    -2.431194     0.143880    -2.835891
    7.457457     0.122695    -2.419417     0.143486    -2.822028
    7.467467     0.121638    -2.407650     0.143134    -2.808312
    7.477477     0.120622    -2.395907     0.142814    -2.794755
    7.487487     0.119647    -2.384197     0.142513    -2.781372
    7.497497     0.118713    -2.372530     0.142207    -2.768178
    7.507507     0.117815    -2.360910     0.141865    -2.755174
    7.517517     0.116952    -2.349344     0.141455    -2.742360
    7.527527     0.116120    -2.337834     0.140939    -2.729714
    7.537538     0.115316    -2.326382     0.140289    -2.717202
    7.547547     0.114537    -2.314991     0.139492    -2.704782
    7.557557     0.113781    -2.303663     0.138551    -2.692408
    7.567567     0.113046    -2.292394     0.137485    -2.680037
    7.577577     0.112329    -2.281188     0.136327    -2.667643
    7.587587     0.111630    -2.270045     0.135111    -2.655210
    7.597597     0.110946    -2.258965     0.133872    -2.642741
    7.607607     0.110276    -2.247946     0.132637    -2.630243
    7.617618     0.109618    -2.236988     0.131424    -2.617727
    7.627627     0.108973    -2.226092     0.130248    -2.605213
    7.637637     0.108340    -2.215255     0.129113    -2.592713
    7.647647     0.107716    -2.204478     0.128024    -2.580240
    7.657657     0.107102    -2.193761     0.126979    -2.567806
    7.667668     0.106498    -2.183103     0.125976    -2.555418
    7.677677     0.105902    -2.172503     0.125013    -2.543085
    7.687687     0.105315    -2.161960     0.124086    -2.530810
    7.697698     0.104735    -2.151474     0.123192    -2.518595
    7.707707     0.104163    -2.141045     0.122328    -2.506445
    7.717717     0.103599    -2.130672     0.121490    -2.494360
    7.727727     0.103041    -2.120353     0.120677    -2.482342
    7.737737     0.102490    -2.110090     0.119885    -2.470392
    7.747747     0.101946    -2.099881     0.119113    -2.458509
    7.757758     0.101409    -2.089726     0.118359    -2.446692
    7.767767     0.100878    -2.079623     0.117621    -2.434945
    7.777778     0.100353    -2.069573     0.116899    -2.423263
     7.78779      0.09983     -2.05958      0.11619     -2.41165
     7.79780      0.09932     -2.04963      0.11549     -2.40010
     7.80781      0.09882     -2.03973      0.11481     -2.38861
     7.81782      0.09832     -2.02989      0.11414     -2.37719
     7.82783      0.09782     -2.02009      0.11347     -2.36584
     7.83784      0.09733     -2.01035      0.11282     -2.35455
     7.84785      0.09685     -2.00065      0.11218     -2.34332
     7.85786      0.09638     -1.99100      0.11154     -2.33215
     7.86787      0.09591     -1.98140      0.11091     -2.32105
     7.87788      0.09545     -1.97185      0.11030     -2.31000
     7.88789      0.09499     -1.96234      0.10968     -2.29902
     7.89790      0.09455     -1.95288      0.10908     -2.28809
     7.90791      0.09411     -1.94347      0.10848     -2.27723
     7.91792      0.09368     -1.93410      0.10789     -2.26642
     7.92793      0.09325     -1.92478      0.10731     -2.25568
     7.93794      0.09284     -1.91550      0.10674     -2.24498
     7.94795      0.09244     -1.90627      0.10617     -2.23435
     7.95796      0.09204     -1.89708      0.10560     -2.22377
     7.96797      0.09166     -1.88793      0.10504     -2.21325
     7.97798      0.09129     -1.87883      0.10449     -2.20279
     7.98799      0.09093     -1.86977      0.10395     -2.19237
     7.99800      0.09059     -1.86075      0.10341     -2.18202
     8.00801      0.09027     -1.85178      0.10288     -2.17171
     8.01802      0.08996     -1.84286      0.10235     -2.16146
     8.02803      0.08967     -1.83397      0.10183     -2.15126
     8.03804      0.08941     -1.82514      0.10132     -2.14112
     8.04805      0.08917     -1.81636      0.10081     -2.13103
     8.05806      0.08896     -1.80763      0.10031     -2.12098
     8.06807      0.08877     -1.79896      0.09981     -2.11099
     8.07808      0.08862     -1.79035      0.09932     -2.10105
     8.08809      0.08849     -1.78181      0.09884     -2.09116
     8.09810      0.08840     -1.77336      0.09837     -2.08132
     8.10811      0.08833     -1.76499      0.09790     -2.07152
     8.11812      0.08828     -1.75673      0.09745     -2.06178
     8.12813      0.08823     -1.74858      0.09700     -2.05208
     8.13814      0.08817     -1.74055      0.09656     -2.04243
     8.14815      0.08807     -1.73264      0.09613     -2.03283
     8.15816      0.08791     -1.72484      0.09571     -2.02327
     8.16817      0.08766     -1.71714      0.09530     -2.01377
     8.17818      0.08730     -1.70950      0.09491     -2.00431
     8.18819      0.08684     -1.70190      0.09453     -1.99489
     8.19820      0.08628     -1.69430      0.09416     -1.98553
     8.20821      0.08564     -1.68668      0.09381     -1.97622
     8.21822      0.08494     -1.67902      0.09348     -1.96696
     8.22823      0.08421     -1.67132      0.09317     -1.95775
     8.23824      0.08347     -1.66358      0.09288     -1.94860
     8.24825      0.08274     -1.65581      0.09262     -1.93951
     8.25826      0.08203     -1.64801      0.09237     -1.93049
     8.26827      0.08134     -1.64021      0.09215     -1.92153
     8.27828      0.08069     -1.63241      0.09194     -1.91266
     8.28829      0.08006     -1.62462      0.09175     -1.90387
     8.29830      0.07947     -1.61684      0.09155     -1.89518
     8.30831      0.07890     -1.60909      0.09135     -1.88659
     8.31832      0.07836     -1.60137      0.09111     -1.87809
     8.32833      0.07784     -1.59367      0.09084     -1.86968
     8.33834      0.07734     -1.58601      0.09050     -1.86135
     8.34835      0.07686     -1.57837      0.09009     -1.85308
     8.35836      0.07640     -1.57078      0.08961     -1.84484
     8.36837      0.07595     -1.56322      0.08907     -1.83662
     8.37838      0.07552     -1.55569      0.08847     -1.82839
     8.38839      0.07510     -1.54820      0.08784     -1.82015
     8.39840      0.07469     -1.54075      0.08720     -1.81190
     8.40841      0.07428     -1.53333      0.08655     -1.80364
     8.41842      0.07389     -1.52595      0.08590     -1.79537
     8.42843      0.07351     -1.51860      0.08528     -1.78710
     8.43844      0.07313     -1.51129      0.08467     -1.77885
     8.44845      0.07276     -1.50401      0.08409     -1.77061
     8.45846      0.07240     -1.49677      0.08352     -1.76239
     8.46847      0.07204     -1.48956      0.08298     -1.75419
     8.47848      0.07169     -1.48239      0.08245     -1.74603
     8.48849      0.07134     -1.47525      0.08195     -1.73790
     8.49850      0.07100     -1.46814      0.08146     -1.72981
     8.50851      0.07067     -1.46107      0.08099     -1.72175
     8.51852      0.07034     -1.45403      0.08052     -1.71372
     8.52853      0.07001     -1.44702      0.08008     -1.70574
     8.53854      0.06968     -1.44004      0.07964     -1.69779
     8.54855      0.06937     -1.43309      0.07921     -1.68988
     8.55856      0.06905     -1.42618      0.07879     -1.68200
     8.56857      0.06874     -1.41930      0.07838     -1.67417
     8.57858      0.06843     -1.41245      0.07798     -1.66637
     8.58859      0.06813     -1.40562      0.07758     -1.65861
     8.59860      0.06783     -1.39883      0.07719     -1.65089
     8.60861      0.06753     -1.39207      0.07680     -1.64320
     8.61862      0.06724     -1.38534      0.07643     -1.63555
     8.62863      0.06695     -1.37863      0.07605     -1.62794
     8.63864      0.06667     -1.37196      0.07568     -1.62036
     8.64865      0.06639     -1.36531      0.07532     -1.61282
     8.65866      0.06611     -1.35870      0.07496     -1.60531
     8.66867      0.06584     -1.35211      0.07460     -1.59784
     8.67868      0.06557     -1.34555      0.07425     -1.59041
     8.68869      0.06531     -1.33901      0.07390     -1.58300
     8.69870      0.06505     -1.33251      0.07356     -1.57564
     8.70871      0.06479     -1.32603      0.07321     -1.56830
     8.71872      0.06454     -1.31957      0.07288     -1.56100
     8.72873      0.06430     -1.31315      0.07254     -1.55374
     8.73874      0.06406     -1.30675      0.07221     -1.54650
     8.74875      0.06383     -1.30037      0.07188     -1.53930
     8.75876      0.06361     -1.29402      0.07156     -1.53213
     8.76877      0.06339     -1.28770      0.07123     -1.52500
     8.77878      0.06319     -1.28140      0.07092     -1.51789
     8.78879      0.06299     -1.27513      0.07060     -1.51082
     8.79880      0.06280     -1.26889      0.07029     -1.50378
     8.80881      0.06262     -1.26267      0.06998     -1.49677
     8.81882      0.06246     -1.25647      0.06967     -1.48979
     8.82883      0.06231     -1.25031      0.06937     -1.48284
     8.83884      0.06218     -1.24417      0.06907     -1.47593
     8.84885      0.06207     -1.23806      0.06877     -1.46904
     8.85886      0.06197     -1.23199      0.06848     -1.46218
     8.86887      0.06190     -1.22595      0.06819     -1.45535
     8.87888      0.06185     -1.21995      0.06790     -1.44855
     8.88889      0.06182     -1.21400      0.06762     -1.44178
     8.89890      0.06182     -1.20810      0.06734     -1.43504
     8.90891      0.06184     -1.20227      0.06706     -1.42833
     8.91892      0.06187     -1.19650      0.06679     -1.42165
     8.92893      0.06191     -1.19081      0.06652     -1.41500
     8.93894      0.06195     -1.18521      0.06626     -1.40837
     8.94895      0.06196     -1.17969      0.06600     -1.40177
     8.95896      0.06193     -1.17426      0.06575     -1.39520
     8.96897      0.06183     -1.16890      0.06550     -1.38866
     8.97898      0.06166     -1.16360      0.06526     -1.38215
     8.98899      0.06140     -1.15833      0.06503     -1.37566
     8.99900      0.06105     -1.15307      0.06481     -1.36920
     9.00901      0.06064     -1.14778      0.06459     -1.36277
     9.01902      0.06017     -1.14246      0.06438     -1.35638
     9.02903      0.05967     -1.13711      0.06419     -1.35001
     9.03904      0.05915     -1.13171      0.06400     -1.34367
     9.04905      0.05864     -1.12628      0.06383     -1.33737
     9.05906      0.05814     -1.12082      0.06367     -1.33111
     9.06907      0.05765     -1.11534      0.06352     -1.32489
     9.07908      0.05719     -1.10985      0.06338     -1.31871
     9.08909      0.05675     -1.10437      0.06325     -1.31258
     9.09910      0.05634     -1.09888      0.06312     -1.30650
     9.10911      0.05594     -1.09341      0.06299     -1.30047
     9.11912      0.05557     -1.08795      0.06284     -1.29451
     9.12913      0.05521     -1.08251      0.06268     -1.28859
     9.13914      0.05488     -1.07708      0.06248     -1.28272
     9.14915      0.05455     -1.07168      0.06225     -1.27689
     9.15916      0.05424     -1.06629      0.06198     -1.27109
     9.16917      0.05394     -1.06093      0.06167     -1.26530
     9.17918      0.05366     -1.05559      0.06133     -1.25951
     9.18919      0.05338     -1.05027      0.06097     -1.25372
     9.19920      0.05311     -1.04498      0.06060     -1.24793
     9.20921      0.05285     -1.03970      0.06022     -1.24213
     9.21922      0.05259     -1.03445      0.05985     -1.23633
     9.22923      0.05234     -1.02922      0.05948     -1.23053
     9.23924      0.05210     -1.02402      0.05912     -1.22474
     9.24925      0.05186     -1.01883      0.05877     -1.21896
     9.25926      0.05163     -1.01367      0.05844     -1.21319
     9.26927      0.05140     -1.00853      0.05811     -1.20744
     9.27928      0.05118     -1.00341      0.05780     -1.20170
     9.28929      0.05095     -0.99831      0.05750     -1.19599
     9.29930      0.05074     -0.99323      0.05720     -1.19030
     9.30931      0.05052     -0.98818      0.05692     -1.18463
     9.31932      0.05031     -0.98314      0.05664     -1.17898
     9.32933      0.05010     -0.97813      0.05637     -1.17335
     9.33934      0.04990     -0.97313      0.05610     -1.16775
     9.34935      0.04970     -0.96816      0.05584     -1.16217
     9.35936      0.04950     -0.96320      0.05559     -1.15661
     9.36937      0.04930     -0.95827      0.05534     -1.15108
     9.37938      0.04911     -0.95335      0.05509     -1.14556
     9.38939      0.04891     -0.94845      0.05485     -1.14008
     9.39940      0.04873     -0.94357      0.05461     -1.13461
     9.40941      0.04854     -0.93871      0.05437     -1.12917
     9.41942      0.04835     -0.93387      0.05414     -1.12375
     9.42943      0.04817     -0.92905      0.05391     -1.11835
     9.43944      0.04799     -0.92425      0.05368     -1.11297
     9.44945      0.04782     -0.91946      0.05346     -1.10762
     9.45946      0.04765     -0.91469      0.05324     -1.10229
     9.46947      0.04748     -0.90994      0.05302     -1.09698
     9.47948      0.04731     -0.90521      0.05280     -1.09169
     9.48949      0.04714     -0.90050      0.05258     -1.08642
     9.49950      0.04698     -0.89580      0.05237     -1.08118
     9.50951      0.04683     -0.89112      0.05216     -1.07595
     9.51952      0.04667     -0.88645      0.05195     -1.07075
     9.52953      0.04652     -0.88180      0.05174     -1.06556
     9.53954      0.04638     -0.87717      0.05153     -1.06040
     9.54955      0.04624     -0.87256      0.05133     -1.05526
     9.55956      0.04610     -0.86796      0.05113     -1.05014
     9.56957      0.04597     -0.86337      0.05092     -1.04503
     9.57958      0.04585     -0.85881      0.05073     -1.03995
     9.58959      0.04573     -0.85425      0.05053     -1.03489
     9.59960      0.04562     -0.84972      0.05033     -1.02985
     9.60961      0.04552     -0.84520      0.05014     -1.02483
     9.61962      0.04543     -0.84070      0.04994     -1.01982
     9.62963      0.04536     -0.83621      0.04975     -1.01484
     9.63964      0.04529     -0.83175      0.04956     -1.00987
     9.64965      0.04524     -0.82730      0.04938     -1.00493
     9.65966      0.04520     -0.82288      0.04919     -1.00000
     9.66967      0.04518     -0.81848      0.04901     -0.99509
     9.67968      0.04518     -0.81410      0.04883     -0.99020
     9.68969      0.04519     -0.80976      0.04865     -0.98533
     9.69970      0.04523     -0.80546      0.04847     -0.98048
     9.70971      0.04528     -0.80120      0.04829     -0.97565
     9.71972      0.04535     -0.79699      0.04812     -0.97083
     9.72973      0.04543     -0.79283      0.04795     -0.96603
     9.73974      0.04550     -0.78874      0.04778     -0.96125
     9.74975      0.04556     -0.78472      0.04762     -0.95649
     9.75976      0.04559     -0.78076      0.04745     -0.95174
     9.76977      0.04558     -0.77687      0.04729     -0.94702
     9.77978      0.04550     -0.77302      0.04714     -0.94231
     9.78979      0.04535     -0.76921      0.04699     -0.93762
     9.79980      0.04514     -0.76539      0.04684     -0.93294
     9.80981      0.04486     -0.76157      0.04670     -0.92829
     9.81982      0.04453     -0.75772      0.04656     -0.92365
     9.82983      0.04416     -0.75383      0.04643     -0.91903
     9.83984      0.04378     -0.74991      0.04631     -0.91444
     9.84985      0.04340     -0.74595      0.04619     -0.90986
     9.85986      0.04302     -0.74196      0.04608     -0.90531
     9.86987      0.04265     -0.73795      0.04597     -0.90078
     9.87988      0.04231     -0.73393      0.04588     -0.89628
     9.88989      0.04198     -0.72990      0.04578     -0.89180
     9.89990      0.04167     -0.72587      0.04569     -0.88736
     9.90991      0.04137     -0.72184      0.04560     -0.88295
     9.91992      0.04110     -0.71782      0.04551     -0.87858
     9.92993      0.04084     -0.71380      0.04540     -0.87424
     9.93994      0.04059     -0.70980      0.04528     -0.86993
     9.94995      0.04036     -0.70581      0.04514     -0.86564
     9.95996      0.04014     -0.70183      0.04497     -0.86138
     9.96997      0.03993     -0.69787      0.04478     -0.85712
     9.97998      0.03972     -0.69392      0.04457     -0.85287
     9.98999      0.03953     -0.68999      0.04435     -0.84862
    10.00000      0.03934     -0.68607      0.04412     -0.84437
# 
# 11/06/2019 at 12:14 YAMBO @ dufour [start]
# 11/06/2019 at 12:15                [end]
#  
# Timing   [Min/Max/Average]: 40s/40s/40s
#
# .-Input file : References/00_bse_00_bse.in
# | optics                         # [R OPT] Optics
# | bse                            # [R BSE] Bethe Salpeter Equation.
# | bsk                            # [R BSK] Bethe Salpeter Equation kernel
# | bss                            # [R BSS] Bethe Salpeter Equation solver
# | em1s                           # [R Xs] Static Inverse Dielectric Matrix
# | BoseTemp= 0.000000     eV      # Bosonic Temperature
# | X_Threads= 1                   # [OPENMP/X] Number of threads for response functions
# | DIP_Threads= 1                 # [OPENMP/X] Number of threads for dipoles
# | K_Threads= 1                   # [OPENMP/BSK] Number of threads for response functions
# | Chimod= "HARTREE"              # [X] IP/Hartree/ALDA/LRC/PF/BSfxc
# | BSEmod= "retarded"             # [BSE] resonant/retarded/coupling
# | BSKmod= "SEX"                  # [BSE] IP/Hartree/HF/ALDA/SEX
# | BSSmod= "d"                    # [BSS] (h)aydock/(d)iagonalization/(i)nversion/(t)ddft`
# | BSENGexx=  4531        RL      # [BSK] Exchange components
# | BSENGBlk= 109          RL      # [BSK] Screened interaction block size
# | #WehCpl                        # [BSK] eh interaction included also in coupling
# | % KfnQP_E
# |  3.500000 | 1.000000 | 1.000000 |        # [EXTQP BSK BSS] E parameters  (c/v) eV|adim|adim
# | %
# | % BEnRange
# |   0.00000 | 10.00000 | eV      # [BSS] Energy range
# | %
# | % BDmRange
# |   0.10000 |  0.10000 | eV      # [BSS] Damping range
# | %
# | BEnSteps= 1000                 # [BSS] Energy steps
# | % BLongDir
# | 0.1000E-4 | 0.000    | 0.000    |        # [BSS] [cc] Electric Field
# | %
# | % BSEBands
# |  1 | 2 |                       # [BSK] Bands range
# | %
# | WRbsWF                         # [BSS] Write to disk excitonic the WFs
# | % BndsRnXs
# |   1 | 20 |                     # [Xs] Polarization function bands
# | %
# | NGsBlkXs= 109          RL      # [Xs] Response block size
# | % DmRngeXs
# |   0.10000 |  0.10000 | eV      # [Xs] Damping range
# | %
# | % LongDrXs
# | 0.1000E-4 | 0.000    | 0.000    |        # [Xs] [cc] Electric Field
# | %
