#                                                           
#  **    **    **     ****     ****  ******     *******     
# //**  **    ****   /**/**   **/** /*////**   **/////**    
#  //****    **//**  /**//** ** /** /*   /**  **     //**   
#   //**    **  //** /** //***  /** /******  /**      /**   
#    /**   **********/**  //*   /** /*//// **/**      /**   
#    /**  /**//////**/**   /    /** /*    /**//**     **    
#    /**  /**     /**/**        /** /*******  //*******     
#    //   //      // //         //  ///////    ///////      
#                                                           
# GPL Version 4.4.0 Revision 148. (Based on r.16920 h.961a8d
#                  MPI+SLK+OpenMP Build                     
#                http://www.yambo-code.org                  
#
# Absorption @ Q(1) [q->0 direction] :0.1000E-4  0.000     0.000   
#
#
# - Energies      are  Analyt. E
# - Wavefunctions are +AMGB (for 2D systems)(C)
#
# - The Green`s function is Retarded -
# - Using the Length Gauge -
# - [r,Vnl] *is* included -
#
#
#    E/ev[1]      EPS-Im[2]    EPS-Re[3]    EPSo-Im[4]   EPSo-Re[5]
#
     0.00000      0.00000     12.76728      0.00000     12.04811
   0.1001E-1    0.1871E-2     12.77       0.1550E-2     12.05   
   0.2002E-1    0.3743E-2     12.77       0.3100E-2     12.05   
   0.3003E-1    0.5615E-2     12.77       0.4651E-2     12.05   
   0.4004E-1    0.7487E-2     12.77       0.6202E-2     12.05   
   0.5005E-1    0.9361E-2     12.77       0.7753E-2     12.05   
   0.6006E-1    0.1123E-1     12.77       0.9305E-2     12.05   
   0.7007E-1    0.1311E-1     12.77       0.1086E-1     12.05   
   0.8008E-1    0.1499E-1     12.77       0.1241E-1     12.05   
     0.09009      0.01686     12.77484      0.01397     12.05438
     0.10010      0.01874     12.77662      0.01552     12.05586
     0.11011      0.02062     12.77858      0.01708     12.05748
     0.12012      0.02251     12.78074      0.01864     12.05927
     0.13013      0.02439     12.78307      0.02020     12.06120
     0.14014      0.02628     12.78560      0.02176     12.06330
     0.15015      0.02817     12.78832      0.02332     12.06555
     0.16016      0.03006     12.79122      0.02489     12.06795
     0.17017      0.03196     12.79432      0.02646     12.07052
     0.18018      0.03386     12.79760      0.02803     12.07324
     0.19019      0.03576     12.80107      0.02960     12.07611
     0.20020      0.03767     12.80474      0.03118     12.07915
     0.21021      0.03958     12.80860      0.03275     12.08234
     0.22022      0.04149     12.81264      0.03433     12.08568
     0.23023      0.04341     12.81687      0.03592     12.08919
     0.24024      0.04533     12.82130      0.03750     12.09286
     0.25025      0.04725     12.82592      0.03909     12.09668
     0.26026      0.04918     12.83073      0.04069     12.10066
     0.27027      0.05112     12.83573      0.04228     12.10480
     0.28028      0.05306     12.84093      0.04388     12.10910
     0.29029      0.05500     12.84632      0.04549     12.11356
     0.30030      0.05695     12.85191      0.04709     12.11818
     0.31031      0.05891     12.85769      0.04871     12.12296
     0.32032      0.06087     12.86366      0.05032     12.12790
     0.33033      0.06284     12.86983      0.05194     12.13301
     0.34034      0.06481     12.87620      0.05357     12.13827
     0.35035      0.06679     12.88277      0.05520     12.14370
     0.36036      0.06878     12.88953      0.05683     12.14929
     0.37037      0.07077     12.89649      0.05847     12.15505
     0.38038      0.07277     12.90365      0.06011     12.16096
     0.39039      0.07478     12.91101      0.06176     12.16705
     0.40040      0.07680     12.91857      0.06342     12.17329
     0.41041      0.07882     12.92634      0.06508     12.17971
     0.42042      0.08085     12.93430      0.06674     12.18628
     0.43043      0.08289     12.94247      0.06842     12.19303
     0.44044      0.08493     12.95084      0.07009     12.19994
     0.45045      0.08699     12.95942      0.07178     12.20702
     0.46046      0.08905     12.96820      0.07347     12.21427
     0.47047      0.09113     12.97718      0.07516     12.22169
     0.48048      0.09321     12.98638      0.07687     12.22927
     0.49049      0.09530     12.99578      0.07858     12.23703
     0.50050      0.09740     13.00540      0.08030     12.24496
     0.51051      0.09951     13.01521      0.08202     12.25306
     0.52052      0.10163     13.02525      0.08375     12.26133
     0.53053      0.10376     13.03550      0.08549     12.26978
     0.54054      0.10591     13.04595      0.08724     12.27840
     0.55055      0.10806     13.05663      0.08899     12.28719
     0.56056      0.11022     13.06751      0.09075     12.29616
     0.57057      0.11240     13.07862      0.09252     12.30530
     0.58058      0.11459     13.08994      0.09430     12.31463
     0.59059      0.11678     13.10148      0.09609     12.32413
     0.60060      0.11900     13.11324      0.09789     12.33381
     0.61061      0.12122     13.12522      0.09969     12.34366
     0.62062      0.12345     13.13743      0.10151     12.35370
     0.63063      0.12570     13.14985      0.10333     12.36392
     0.64064      0.12796     13.16251      0.10516     12.37433
     0.65065      0.13024     13.17538      0.10701     12.38491
     0.66066      0.13253     13.18849      0.10886     12.39569
     0.67067      0.13483     13.20182      0.11072     12.40664
     0.68068      0.13715     13.21538      0.11259     12.41778
     0.69069      0.13948     13.22918      0.11448     12.42911
     0.70070      0.14183     13.24321      0.11637     12.44063
     0.71071      0.14419     13.25747      0.11828     12.45234
     0.72072      0.14657     13.27197      0.12019     12.46424
     0.73073      0.14896     13.28671      0.12212     12.47633
     0.74074      0.15137     13.30169      0.12406     12.48861
     0.75075      0.15380     13.31691      0.12601     12.50109
     0.76076      0.15624     13.33237      0.12797     12.51376
     0.77077      0.15870     13.34807      0.12995     12.52662
     0.78078      0.16118     13.36402      0.13193     12.53969
     0.79079      0.16367     13.38022      0.13393     12.55295
     0.80080      0.16619     13.39667      0.13595     12.56642
     0.81081      0.16872     13.41337      0.13797     12.58008
     0.82082      0.17127     13.43033      0.14001     12.59395
     0.83083      0.17384     13.44753      0.14206     12.60802
     0.84084      0.17643     13.46500      0.14413     12.62230
     0.85085      0.17904     13.48272      0.14621     12.63678
     0.86086      0.18167     13.50071      0.14831     12.65148
     0.87087      0.18432     13.51896      0.15042     12.66638
     0.88088      0.18699     13.53747      0.15254     12.68149
     0.89089      0.18969     13.55625      0.15468     12.69682
     0.90090      0.19240     13.57530      0.15683     12.71235
     0.91091      0.19514     13.59462      0.15901     12.72811
     0.92092      0.19790     13.61421      0.16119     12.74408
     0.93093      0.20068     13.63408      0.16340     12.76027
     0.94094      0.20349     13.65423      0.16562     12.77668
     0.95095      0.20632     13.67467      0.16785     12.79332
     0.96096      0.20917     13.69538      0.17011     12.81017
     0.97097      0.21205     13.71637      0.17238     12.82726
     0.98098      0.21496     13.73766      0.17467     12.84457
     0.99099      0.21789     13.75924      0.17697     12.86210
     1.00100      0.22085     13.78111      0.17930     12.87987
     1.01101      0.22383     13.80328      0.18164     12.89788
     1.02102      0.22685     13.82573      0.18400     12.91611
     1.03103      0.22989     13.84850      0.18639     12.93458
     1.04104      0.23295     13.87157      0.18879     12.95330
     1.05105      0.23605     13.89495      0.19121     12.97225
     1.06106      0.23918     13.91863      0.19365     12.99144
     1.07107      0.24233     13.94263      0.19612     13.01088
     1.08108      0.24552     13.96694      0.19860     13.03056
     1.09109      0.24874     13.99158      0.20111     13.05050
     1.10110      0.25199     14.01653      0.20363     13.07068
     1.11111      0.25527     14.04181      0.20618     13.09112
     1.12112      0.25859     14.06742      0.20876     13.11181
     1.13113      0.26193     14.09336      0.21135     13.13276
     1.14114      0.26532     14.11963      0.21397     13.15396
     1.15115      0.26873     14.14625      0.21661     13.17544
     1.16116      0.27218     14.17320      0.21928     13.19717
     1.17117      0.27567     14.20050      0.22197     13.21917
     1.18118      0.27920     14.22814      0.22469     13.24144
     1.19119      0.28276     14.25614      0.22743     13.26399
     1.20120      0.28636     14.28450      0.23020     13.28680
     1.21121      0.29000     14.31321      0.23300     13.30990
     1.22122      0.29368     14.34229      0.23582     13.33327
     1.23123      0.29740     14.37174      0.23867     13.35693
     1.24124      0.30116     14.40156      0.24154     13.38087
     1.25125      0.30496     14.43176      0.24445     13.40509
     1.26126      0.30880     14.46233      0.24738     13.42961
     1.27127      0.31269     14.49329      0.25035     13.45443
     1.28128      0.31662     14.52464      0.25334     13.47954
     1.29129      0.32060     14.55638      0.25636     13.50494
     1.30130      0.32462     14.58852      0.25942     13.53065
     1.31131      0.32869     14.62106      0.26250     13.55667
     1.32132      0.33281     14.65401      0.26562     13.58299
     1.33133      0.33698     14.68737      0.26877     13.60963
     1.34134      0.34119     14.72114      0.27196     13.63658
     1.35135      0.34546     14.75534      0.27517     13.66385
     1.36136      0.34978     14.78996      0.27843     13.69144
     1.37137      0.35415     14.82502      0.28171     13.71936
     1.38138      0.35857     14.86051      0.28504     13.74760
     1.39139      0.36305     14.89644      0.28839     13.77618
     1.40140      0.36759     14.93282      0.29179     13.80510
     1.41141      0.37218     14.96965      0.29522     13.83435
     1.42142      0.37683     15.00694      0.29870     13.86395
     1.43143      0.38154     15.04470      0.30221     13.89389
     1.44144      0.38631     15.08292      0.30576     13.92418
     1.45145      0.39114     15.12163      0.30935     13.95483
     1.46146      0.39603     15.16081      0.31298     13.98584
     1.47147      0.40098     15.20049      0.31665     14.01721
     1.48148      0.40601     15.24066      0.32037     14.04895
     1.49149      0.41110     15.28133      0.32413     14.08106
     1.50150      0.41625     15.32251      0.32794     14.11355
     1.51151      0.42148     15.36420      0.33178     14.14642
     1.52152      0.42677     15.40642      0.33568     14.17966
     1.53153      0.43214     15.44916      0.33962     14.21331
     1.54154      0.43759     15.49244      0.34361     14.24734
     1.55155      0.44310     15.53626      0.34765     14.28178
     1.56156      0.44870     15.58064      0.35174     14.31661
     1.57157      0.45437     15.62558      0.35588     14.35186
     1.58158      0.46012     15.67107      0.36007     14.38752
     1.59159      0.46596     15.71715      0.36431     14.42360
     1.60160      0.47188     15.76380      0.36861     14.46010
     1.61161      0.47788     15.81105      0.37296     14.49703
     1.62162      0.48397     15.85890      0.37736     14.53439
     1.63163      0.49015     15.90735      0.38183     14.57220
     1.64164      0.49642     15.95642      0.38635     14.61045
     1.65165      0.50278     16.00611      0.39093     14.64916
     1.66166      0.50924     16.05645      0.39556     14.68832
     1.67167      0.51580     16.10742      0.40026     14.72794
     1.68168      0.52245     16.15905      0.40503     14.76804
     1.69169      0.52920     16.21134      0.40985     14.80861
     1.70170      0.53606     16.26431      0.41474     14.84966
     1.71171      0.54303     16.31796      0.41970     14.89120
     1.72172      0.55010     16.37230      0.42473     14.93323
     1.73173      0.55728     16.42735      0.42982     14.97577
     1.74174      0.56458     16.48312      0.43498     15.01882
     1.75175      0.57199     16.53961      0.44022     15.06238
     1.76176      0.57952     16.59684      0.44553     15.10646
     1.77177      0.58717     16.65483      0.45091     15.15108
     1.78178      0.59495     16.71357      0.45637     15.19623
     1.79179      0.60285     16.77309      0.46191     15.24193
     1.80180      0.61088     16.83340      0.46752     15.28817
     1.81181      0.61904     16.89451      0.47322     15.33498
     1.82182      0.62734     16.95642      0.47900     15.38236
     1.83183      0.63578     17.01918      0.48486     15.43032
     1.84184      0.64436     17.08276      0.49081     15.47886
     1.85185      0.65308     17.14721      0.49685     15.52799
     1.86186      0.66196     17.21252      0.50298     15.57773
     1.87187      0.67099     17.27871      0.50920     15.62808
     1.88188      0.68017     17.34581      0.51552     15.67905
     1.89189      0.68952     17.41382      0.52193     15.73065
     1.90190      0.69902     17.48276      0.52843     15.78289
     1.91191      0.70870     17.55264      0.53504     15.83577
     1.92192      0.71855     17.62349      0.54175     15.88932
     1.93193      0.72858     17.69532      0.54857     15.94354
     1.94194      0.73878     17.76814      0.55549     15.99843
     1.95195      0.74918     17.84198      0.56252     16.05402
     1.96196      0.75976     17.91686      0.56966     16.11031
     1.97197      0.77054     17.99279      0.57692     16.16731
     1.98198      0.78152     18.06978      0.58429     16.22503
     1.99199      0.79270     18.14788      0.59179     16.28349
     2.00200      0.80410     18.22708      0.59940     16.34269
     2.01201      0.81571     18.30742      0.60714     16.40266
     2.02202      0.82754     18.38890      0.61501     16.46339
     2.03203      0.83961     18.47157      0.62301     16.52491
     2.04204      0.85190     18.55543      0.63115     16.58723
     2.05205      0.86444     18.64052      0.63942     16.65036
     2.06206      0.87722     18.72685      0.64783     16.71430
     2.07207      0.89026     18.81445      0.65638     16.77909
     2.08208      0.90356     18.90334      0.66508     16.84473
     2.09209      0.91713     18.99355      0.67393     16.91124
     2.10210      0.93097     19.08511      0.68294     16.97863
     2.11211      0.94509     19.17804      0.69210     17.04691
     2.12212      0.95951     19.27238      0.70143     17.11611
     2.13213      0.97422     19.36814      0.71092     17.18623
     2.14214      0.98925     19.46537      0.72058     17.25731
     2.15215      1.00458     19.56408      0.73042     17.32934
     2.16216      1.02025     19.66431      0.74043     17.40235
     2.17217      1.03625     19.76609      0.75063     17.47635
     2.18218      1.05259     19.86946      0.76102     17.55137
     2.19219      1.06929     19.97446      0.77159     17.62742
     2.20220      1.08636     20.08109      0.78237     17.70453
     2.21221      1.10380     20.18943      0.79335     17.78271
     2.22222      1.12163     20.29949      0.80453     17.86197
     2.23223      1.13986     20.41131      0.81593     17.94235
     2.24224      1.15851     20.52493      0.82755     18.02387
     2.25225      1.17758     20.64040      0.83939     18.10653
     2.26226      1.19708     20.75776      0.85146     18.19038
     2.27227      1.21704     20.87704      0.86377     18.27542
     2.28228      1.23746     20.99829      0.87632     18.36168
     2.29229      1.25837     21.12156      0.88912     18.44919
     2.30230      1.27977     21.24690      0.90218     18.53798
     2.31231      1.30168     21.37435      0.91550     18.62805
     2.32232      1.32413     21.50395      0.92909     18.71945
     2.33233      1.34712     21.63578      0.94296     18.81220
     2.34234      1.37067     21.76988      0.95711     18.90632
     2.35235      1.39481     21.90630      0.97156     19.00185
     2.36236      1.41955     22.04508      0.98632     19.09881
     2.37237      1.44492     22.18632      1.00138     19.19724
     2.38238      1.47093     22.33004      1.01676     19.29715
     2.39239      1.49760     22.47633      1.03248     19.39860
     2.40240      1.52497     22.62524      1.04853     19.50159
     2.41241      1.55305     22.77684      1.06493     19.60618
     2.42242      1.58187     22.93121      1.08169     19.71239
     2.43243      1.61146     23.08840      1.09882     19.82026
     2.44244      1.64184     23.24850      1.11633     19.92983
     2.45245      1.67305     23.41158      1.13424     20.04113
     2.46246      1.70511     23.57772      1.15255     20.15420
     2.47247      1.73805     23.74701      1.17128     20.26908
     2.48248      1.77191     23.91953      1.19043     20.38582
     2.49249      1.80672     24.09537      1.21003     20.50445
     2.50250      1.84252     24.27461      1.23009     20.62501
     2.51251      1.87935     24.45736      1.25062     20.74755
     2.52252      1.91724     24.64370      1.27164     20.87213
     2.53253      1.95624     24.83375      1.29316     20.99878
     2.54254      1.99640     25.02760      1.31520     21.12754
     2.55255      2.03775     25.22539      1.33778     21.25849
     2.56256      2.08034     25.42719      1.36091     21.39166
     2.57257      2.12423     25.63316      1.38461     21.52712
     2.58258      2.16947     25.84340      1.40891     21.66491
     2.59259      2.21612     26.05803      1.43381     21.80509
     2.60260      2.26423     26.27721      1.45935     21.94772
     2.61261      2.31387     26.50106      1.48555     22.09287
     2.62262      2.36510     26.72974      1.51242     22.24060
     2.63263      2.41799     26.96338      1.53999     22.39096
     2.64264      2.47262     27.20215      1.56828     22.54405
     2.65265      2.52905     27.44620      1.59733     22.69991
     2.66266      2.58738     27.69572      1.62716     22.85862
     2.67267      2.64768     27.95087      1.65779     23.02026
     2.68268      2.71005     28.21184      1.68926     23.18491
     2.69269      2.77457     28.47883      1.72160     23.35264
     2.70270      2.84137     28.75204      1.75483     23.52354
     2.71271      2.91053     29.03167      1.78900     23.69770
     2.72272      2.98218     29.31795      1.82413     23.87520
     2.73273      3.05643     29.61110      1.86027     24.05614
     2.74274      3.13341     29.91138      1.89746     24.24062
     2.75275      3.21325     30.21902      1.93573     24.42874
     2.76276      3.29611     30.53430      1.97513     24.62059
     2.77277      3.38212     30.85748      2.01570     24.81628
     2.78278      3.47147     31.18887      2.05749     25.01594
     2.79279      3.56430     31.52875      2.10055     25.21966
     2.80280      3.66083     31.87746      2.14493     25.42759
     2.81281      3.76122     32.23531      2.19068     25.63983
     2.82282      3.86571     32.60267      2.23787     25.85652
     2.83283      3.97451     32.97991      2.28656     26.07780
     2.84284      4.08786     33.36740      2.33680     26.30380
     2.85285      4.20602     33.76556      2.38866     26.53469
     2.86286      4.32925     34.17481      2.44222     26.77060
     2.87287      4.45787     34.59562      2.49756     27.01169
     2.88288      4.59217     35.02843      2.55474     27.25814
     2.89289      4.73251     35.47378      2.61385     27.51012
     2.90290      4.87923     35.93216      2.67499     27.76781
     2.91291      5.03274     36.40415      2.73824     28.03139
     2.92292      5.19346     36.89033      2.80370     28.30107
     2.93293      5.36183     37.39133      2.87147     28.57705
     2.94294      5.53836     37.90779      2.94168     28.85954
     2.95295      5.72357     38.44042      3.01443     29.14878
     2.96296      5.91803     38.98993      3.08984     29.44499
     2.97297      6.12237     39.55713      3.16806     29.74842
     2.98298      6.33725     40.14281      3.24922     30.05933
     2.99299      6.56342     40.74788      3.33346     30.37799
     3.00300      6.80166     41.37322      3.42096     30.70468
     3.01301      7.05284     42.01982      3.51187     31.03971
     3.02302      7.31789     42.68875      3.60637     31.38336
     3.03303      7.59787     43.38110      3.70466     31.73599
     3.04304      7.89387     44.09803      3.80694     32.09792
     3.05305      8.20714     44.84080      3.91343     32.46953
     3.06306      8.53903     45.61074      4.02436     32.85117
     3.07307      8.89102     46.40925      4.13998     33.24327
     3.08308      9.26473     47.23786      4.26056     33.64621
     3.09309      9.66195     48.09813      4.38638     34.06047
     3.10310     10.08470     48.99179      4.51775     34.48648
     3.11311     10.53512     49.92064      4.65500     34.92475
     3.12312     11.01567     50.88663      4.79849     35.37579
     3.13313     11.52902     51.89174      4.94859     35.84013
     3.14314     12.07817     52.93824      5.10571     36.31837
     3.15315     12.66644     54.02837      5.27030     36.81108
     3.16316     13.29755     55.16463      5.44284     37.31894
     3.17317     13.97564     56.34960      5.62383     37.84259
     3.18318     14.70539     57.58606      5.81383     38.38277
     3.19319     15.49198     58.87685      6.01346     38.94023
     3.20320     16.34134     60.22508      6.22336     39.51577
     3.21321     17.26005     61.63392      6.44423     40.11024
     3.22322     18.25564     63.10671      6.67687     40.72454
     3.23323     19.33656     64.64682      6.92209     41.35962
     3.24324     20.51249     66.25782      7.18083     42.01652
     3.25325     21.79434     67.94318      7.45407     42.69629
     3.26326     23.19466     69.70645      7.74291     43.40009
     3.27327     24.72769     71.55090      8.04854     44.12912
     3.28328     26.40985     73.47964      8.37228     44.88470
     3.29329     28.25982     75.49521      8.71554     45.66817
     3.30330     30.29927     77.59950      9.07994     46.48103
     3.31331     32.55294     79.79330      9.46718     47.32481
     3.32332     35.04950     82.07582      9.87921     48.20119
     3.33333     37.82180     84.44405     10.31812     49.11190
     3.34334     40.90786     86.89203     10.78629     50.05885
     3.35335     44.35142     89.40948     11.28630     51.04403
     3.36336     48.20241     91.98028     11.82106     52.06955
     3.37337     52.51818     94.58064     12.39378     53.13768
     3.38338     57.36332     97.17603     13.00805     54.25078
     3.39339     62.81054     99.71787     13.66790     55.41144
      3.4034      68.9395     102.1388      14.3778      56.6223
      3.4134      75.8351     104.3467      15.1428      57.8862
      3.4234      83.5853     106.2181      15.9687      59.2061
      3.4334      92.2723     107.5891      16.8617      60.5852
      3.4434     101.9634     108.2469      17.8292      62.0266
      3.4535     112.6925     107.9219      18.8793      63.5337
      3.4635     124.4373     106.2829      20.0213      65.1101
      3.4735     137.0824     102.9423      21.2659      66.7591
      3.4835     150.3806      97.4760      22.6250      68.4841
      3.4935     163.9096      89.4684      24.1124      70.2884
      3.5035     177.0471      78.5869      25.7440      72.1752
      3.5135     188.9761      64.6871      27.5378      74.1470
      3.5235     198.7559      47.9243      29.5146      76.2058
      3.5335     205.4620      28.8327      31.6982      78.3524
      3.5435     208.3764       8.3189      34.1164      80.5864
      3.5536     207.1644     -12.4511      36.8007      82.9052
      3.5636     201.9666     -32.2633      39.7879      85.3033
      3.5736     193.3608     -50.0816      43.1198      87.7710
      3.5836     182.2088     -65.2112      46.8449      90.2938
      3.5936     169.4656     -77.3449      51.0184      92.8492
      3.6036     156.0126     -86.5150      55.7026      95.4048
      3.6136     142.5564     -92.9902      60.9680      97.9151
      3.6236     129.6010     -97.1620      66.8919     100.3166
      3.6336     117.4618     -99.4583      73.5573     102.5225
      3.6436     106.3038    -100.2856      81.0496     104.4157
      3.6537      96.1830     -99.9998      89.4515     105.8413
      3.6637      87.0857     -98.8959      98.8312     106.5972
      3.6737      78.9560     -97.2095     109.2280     106.4261
      3.6837      71.7162     -95.1238     120.6272     105.0111
      3.6937      65.2795     -92.7779     132.9308     101.9783
      3.7037      59.5594     -90.2761     145.9147      96.9144
      3.7137      54.4737     -87.6953     159.1889      89.4069
      3.7237      49.9469     -85.0913     172.1672      79.1151
      3.7337      45.9106     -82.5038     184.0717      65.8666
      3.7437      42.3047     -79.9608     193.9882      49.7712
      3.7538      39.0763     -77.4813     200.9984      31.3029
      3.7638      36.1792     -75.0779     204.3612      11.3107
      3.7738      33.5729     -72.7580     203.6935      -9.0862
      3.7838      31.2227     -70.5259     199.0731     -28.6896
      3.7938      29.0982     -68.3831     191.0182     -46.4505
      3.8038      27.1731     -66.3294     180.3502     -61.6381
      3.8138      25.4245     -64.3634     168.0035     -73.9053
      3.8238      23.8325     -62.4827     154.8582     -83.2465
      3.8338      22.3798     -60.6845     141.6334     -89.9010
      3.8438      21.0513     -58.9655     128.8487     -94.2434
      3.8539      19.8338     -57.3223     116.8340     -96.6927
      3.8639      18.7158     -55.7513     105.7678     -97.6523
     3.87387     17.68705    -54.24902     95.71761    -97.47842
     3.88388     16.73863    -52.81199     86.67590    -96.46800
     3.89389     15.86268    -51.43684     78.59216    -94.85929
     3.90390     15.05224    -50.12033     71.39194    -92.83791
     3.91391     14.30117    -48.85940     64.99136    -90.54556
     3.92392     13.60395    -47.65098     59.30466    -88.08817
     3.93393     12.95573    -46.49231     54.25071    -85.54420
     3.94394     12.35220    -45.38070     49.75446    -82.97066
     3.95395     11.78950    -44.31369     45.74847    -80.40847
     3.96396     11.26413    -43.28885     42.17238    -77.88602
     3.97397     10.77301    -42.30398     38.97362    -75.42303
     3.98398     10.31339    -41.35696     36.10610    -73.03234
     3.99399      9.88278    -40.44590     33.52983    -70.72204
     4.00400      9.47890    -39.56887     31.20981    -68.49628
     4.01401      9.09977    -38.72419     29.11597    -66.35694
     4.02402      8.74357    -37.91025     27.22217    -64.30396
     4.03403      8.40868    -37.12560     25.50578    -62.33606
     4.04404      8.09360    -36.36884     23.94701    -60.45081
     4.05405      7.79701    -35.63868     22.52883    -58.64547
     4.06406      7.51770    -34.93399     21.23641    -56.91681
     4.07407      7.25456    -34.25377     20.05686    -55.26147
     4.08408      7.00653    -33.59705     18.97884    -53.67582
     4.09409      6.77262    -32.96303     17.99262    -52.15643
     4.10410      6.55186    -32.35106     17.08972    -50.69991
     4.11411      6.34319    -31.76048     16.26264    -49.30277
     4.12412      6.14554    -31.19073     15.50501    -47.96191
     4.13413      5.95771    -30.64124     14.81128    -46.67429
     4.14414      5.77841    -30.11134     14.17671    -45.43713
     4.15415      5.60630    -29.60011     13.59719    -44.24771
     4.16416      5.44010    -29.10641     13.06932    -43.10371
     4.17417      5.27874    -28.62887     12.59030    -42.00308
     4.18418      5.12153    -28.16593     12.15787    -40.94409
     4.19419      4.96812    -27.71599     11.77023    -39.92526
     4.20420      4.81859    -27.27770     11.42609    -38.94575
     4.21421      4.67326    -26.84998     11.12454    -38.00519
     4.22422      4.53253    -26.43209     10.86499    -37.10394
     4.23423      4.39676    -26.02356     10.64701    -36.24308
     4.24424      4.26621    -25.62416     10.47015    -35.42477
     4.25425      4.14098    -25.23376     10.33364    -34.65229
     4.26426      4.02107    -24.85229     10.23593    -33.93022
     4.27427      3.90635    -24.47966     10.17406    -33.26425
     4.28428      3.79662    -24.11578     10.14293    -32.66111
     4.29429      3.69168    -23.76054     10.13446    -32.12775
     4.30430      3.59126    -23.41376     10.13691    -31.67017
     4.31431      3.49511    -23.07527     10.13478    -31.29143
     4.32432      3.40300    -22.74487     10.10968    -30.98964
     4.33433      3.31468    -22.42234     10.04261    -30.75607
     4.34434      3.22994    -22.10748      9.91737    -30.57460
     4.35435      3.14857    -21.80002      9.72420    -30.42328
     4.36436      3.07037    -21.49977      9.46217    -30.27786
     4.37437      2.99517    -21.20651      9.13932    -30.11624
     4.38438      2.92280    -20.92000      8.77024    -29.92204
     4.39439      2.85312    -20.64002      8.37258    -29.68637
     4.40440      2.78597    -20.36638      7.96347    -29.40731
     4.41441      2.72124    -20.09889      7.55727    -29.08822
     4.42442      2.65879    -19.83732      7.16445    -28.73546
     4.43443      2.59852    -19.58150      6.79179    -28.35663
     4.44444      2.54032    -19.33123      6.44294    -27.95924
     4.45445      2.48410    -19.08638      6.11926    -27.55000
     4.46446      2.42975    -18.84672      5.82053    -27.13444
     4.47447      2.37720    -18.61213      5.54562    -26.71704
     4.48448      2.32637    -18.38244      5.29288    -26.30117
     4.49449      2.27719    -18.15750      5.06044    -25.88942
     4.50450      2.22956    -17.93717      4.84640    -25.48354
     4.51451      2.18345    -17.72131      4.64893    -25.08485
     4.52452      2.13877    -17.50978      4.46635    -24.69419
     4.53453      2.09548    -17.30246      4.29712    -24.31210
     4.54454      2.05352    -17.09921      4.13986    -23.93885
     4.55455      2.01283    -16.89993      3.99334    -23.57459
     4.56456      1.97336    -16.70450      3.85648    -23.21929
     4.57457      1.93508    -16.51281      3.72835    -22.87289
     4.58458      1.89793    -16.32474      3.60809    -22.53520
     4.59459      1.86187    -16.14020      3.49497    -22.20604
     4.60460      1.82686    -15.95909      3.38835    -21.88517
     4.61461      1.79288    -15.78131      3.28764    -21.57237
     4.62462      1.75987    -15.60677      3.19235    -21.26736
     4.63463      1.72782    -15.43538      3.10203    -20.96990
     4.64464      1.69669    -15.26707      3.01628    -20.67974
     4.65465      1.66644    -15.10172      2.93475    -20.39661
     4.66466      1.63707    -14.93928      2.85711    -20.12026
     4.67467      1.60853    -14.77966      2.78310    -19.85046
     4.68468      1.58081    -14.62279      2.71245    -19.58699
     4.69469      1.55389    -14.46860      2.64494    -19.32960
     4.70470      1.52775    -14.31700      2.58036    -19.07809
     4.71471      1.50237    -14.16795      2.51853    -18.83225
     4.72472      1.47774    -14.02137      2.45928    -18.59188
     4.73473      1.45385    -13.87720      2.40246    -18.35678
     4.74474      1.43069    -13.73537      2.34792    -18.12678
     4.75475      1.40825    -13.59584      2.29555    -17.90169
     4.76476      1.38653    -13.45856      2.24522    -17.68136
     4.77477      1.36553    -13.32346      2.19684    -17.46560
     4.78478      1.34526    -13.19051      2.15031    -17.25428
     4.79479      1.32572    -13.05966      2.10555    -17.04723
     4.80480      1.30693    -12.93089      2.06247    -16.84434
     4.81481      1.28890    -12.80415      2.02101    -16.64544
     4.82482      1.27165    -12.67945      1.98110    -16.45041
     4.83483      1.25520    -12.55677      1.94269    -16.25911
     4.84484      1.23958    -12.43613      1.90572    -16.07145
     4.85485      1.22481    -12.31756      1.87017    -15.88729
     4.86486      1.21090    -12.20111      1.83598    -15.70652
     4.87487      1.19785    -12.08687      1.80313    -15.52904
     4.88488      1.18565    -11.97494      1.77159    -15.35474
     4.89489      1.17421    -11.86546      1.74136    -15.18353
     4.90490      1.16341    -11.75857      1.71241    -15.01531
     4.91491      1.15304    -11.65443      1.68476    -14.85001
     4.92492      1.14281    -11.55312      1.65841    -14.68753
     4.93493      1.13235    -11.45467      1.63337    -14.52782
     4.94494      1.12123    -11.35896      1.60968    -14.37079
     4.95495      1.10904    -11.26570      1.58738    -14.21642
     4.96496      1.09549    -11.17443      1.56650    -14.06465
     4.97497      1.08044    -11.08463      1.54713    -13.91547
     4.98498      1.06397    -10.99572      1.52933    -13.76889
     4.99499      1.04636    -10.90726      1.51319    -13.62495
     5.00500      1.02797    -10.81892      1.49880    -13.48371
     5.01501      1.00922    -10.73057      1.48627    -13.34530
     5.02502      0.99048    -10.64222      1.47567    -13.20990
     5.03503      0.97203    -10.55397      1.46709    -13.07778
     5.04504      0.95407    -10.46597      1.46052    -12.94927
     5.05505      0.93673    -10.37837      1.45591    -12.82479
     5.06506      0.92006    -10.29134      1.45302    -12.70486
     5.07507      0.90408    -10.20500      1.45145    -12.59003
     5.08508      0.88877    -10.11945      1.45055    -12.48080
     5.09509      0.87411    -10.03476      1.44935    -12.37756
     5.10510      0.86004     -9.95100      1.44666    -12.28039
     5.11511      0.84653     -9.86821      1.44113    -12.18893
     5.12512      0.83353     -9.78640      1.43150    -12.10226
     5.13514      0.82100     -9.70559      1.41684    -12.01899
     5.14514      0.80892     -9.62578      1.39680    -11.93742
     5.15515      0.79723     -9.54697      1.37170    -11.85582
     5.16516      0.78591     -9.46916      1.34245    -11.77280
     5.17518      0.77494     -9.39232      1.31030    -11.68748
     5.18518      0.76429     -9.31646      1.27655    -11.59949
     5.19519      0.75394     -9.24155      1.24238    -11.50892
     5.20520      0.74387     -9.16758      1.20872    -11.41617
     5.21522      0.73407     -9.09454      1.17619    -11.32178
     5.22522      0.72451     -9.02241      1.14519    -11.22631
     5.23523      0.71518     -8.95117      1.11590    -11.13028
     5.24524      0.70608     -8.88080      1.08836    -11.03415
     5.25526      0.69720     -8.81129      1.06252    -10.93828
     5.26526      0.68851     -8.74263      1.03830    -10.84296
     5.27527      0.68002     -8.67479      1.01557    -10.74839
     5.28528      0.67172     -8.60777      0.99421    -10.65475
     5.29530      0.66360     -8.54154      0.97408    -10.56214
     5.30531      0.65564     -8.47610      0.95507    -10.47063
     5.31531      0.64786     -8.41142      0.93707    -10.38028
     5.32533      0.64024     -8.34750      0.91997    -10.29111
     5.33534      0.63277     -8.28431      0.90370    -10.20314
     5.34535      0.62546     -8.22185      0.88816    -10.11637
     5.35536      0.61829     -8.16009      0.87329    -10.03079
    5.365365     0.611266    -8.099041     0.859041    -9.946386
    5.375375     0.604385    -8.038670     0.845347    -9.863149
    5.385385     0.597642    -7.978977     0.832166    -9.781064
    5.395395     0.591034    -7.919937     0.819457    -9.700103
    5.405405     0.584559    -7.861549     0.807184    -9.620243
    5.415415     0.578214    -7.803800     0.795317    -9.541471
    5.425425     0.571999    -7.746667     0.783825    -9.463754
    5.435435     0.565912    -7.690149     0.772686    -9.387076
    5.445445     0.559951    -7.634233     0.761877    -9.311414
    5.455455     0.554117    -7.578912     0.751379    -9.236747
    5.465465     0.548409    -7.524165     0.741173    -9.163049
    5.475475     0.542827    -7.469989     0.731244    -9.090301
    5.485486     0.537372    -7.416369     0.721579    -9.018482
    5.495495     0.532046    -7.363303     0.712164    -8.947576
    5.505505     0.526850    -7.310771     0.702987    -8.877556
    5.515515     0.521787    -7.258770     0.694040    -8.808412
    5.525526     0.516860    -7.207291     0.685311    -8.740115
    5.535535     0.512074    -7.156322     0.676794    -8.672658
    5.545545     0.507435    -7.105858     0.668480    -8.606012
    5.555555     0.502947    -7.055889     0.660363    -8.540168
    5.565566     0.498621    -7.006408     0.652435    -8.475105
    5.575575     0.494464    -6.957418     0.644694    -8.410813
    5.585585     0.490489    -6.908905     0.637132    -8.347268
    5.595595     0.486707    -6.860875     0.629746    -8.284456
    5.605606     0.483135    -6.813326     0.622533    -8.222368
    5.615615     0.479788    -6.766270     0.615489    -8.160987
    5.625625     0.476686    -6.719708     0.608613    -8.100293
    5.635635     0.473848    -6.673664     0.601902    -8.040278
    5.645645     0.471294    -6.628166     0.595355    -7.980928
    5.655655     0.469044    -6.583243     0.588972    -7.922225
    5.665665     0.467111    -6.538948     0.582754    -7.864162
    5.675675     0.465500    -6.495348     0.576701    -7.806721
    5.685685     0.464200    -6.452519     0.570816    -7.749897
    5.695695     0.463177    -6.410549     0.565101    -7.693672
    5.705706     0.462359    -6.369546     0.559561    -7.638037
    5.715715     0.461630    -6.329602     0.554202    -7.582980
    5.725725     0.460824    -6.290785     0.549031    -7.528500
    5.735735     0.459729    -6.253114     0.544055    -7.474581
    5.745746     0.458109    -6.216526     0.539286    -7.421219
    5.755755     0.455737    -6.180864     0.534736    -7.368408
    5.765765     0.452452    -6.145883     0.530419    -7.316154
    5.775775     0.448192    -6.111275     0.526353    -7.264449
    5.785786     0.443015    -6.076743     0.522556    -7.213307
    5.795795     0.437081    -6.042038     0.519050    -7.162738
    5.805805     0.430612    -6.007002     0.515858    -7.112764
    5.815815     0.423844    -5.971571     0.513001    -7.063415
    5.825826     0.416987    -5.935763     0.510500    -7.014731
    5.835836     0.410207    -5.899649     0.508370    -6.966775
    5.845845     0.403617    -5.863327     0.506614    -6.919624
    5.855855     0.397287    -5.826895     0.505215    -6.873366
    5.865866     0.391250    -5.790448     0.504126    -6.828109
    5.875876     0.385516    -5.754068     0.503259    -6.783969
    5.885885     0.380078    -5.717822     0.502471    -6.741055
    5.895895     0.374919    -5.681758     0.501563    -6.699432
    5.905906     0.370020    -5.645919     0.500285    -6.659110
    5.915915     0.365357    -5.610332     0.498363    -6.620005
    5.925926     0.360910    -5.575014     0.495549    -6.581909
    5.935935     0.356656    -5.539983     0.491670    -6.544533
    5.945946     0.352577    -5.505247     0.486679    -6.507522
    5.955956     0.348656    -5.470811     0.480663    -6.470537
    5.965966     0.344877    -5.436679     0.473821    -6.433311
    5.975976     0.341228    -5.402847     0.466413    -6.395676
    5.985986     0.337697    -5.369320     0.458706    -6.357582
    5.995996     0.334273    -5.336094     0.450934    -6.319058
    6.006006     0.330947    -5.303164     0.443276    -6.280191
    6.016016     0.327712    -5.270531     0.435853    -6.241094
    6.026026     0.324561    -5.238185     0.428738    -6.201883
    6.036036     0.321487    -5.206130     0.421965    -6.162663
    6.046046     0.318487    -5.174357     0.415538    -6.123523
    6.056056     0.315554    -5.142861     0.409449    -6.084538
    6.066066     0.312685    -5.111640     0.403678    -6.045762
    6.076076     0.309877    -5.080693     0.398200    -6.007240
    6.086086     0.307127    -5.050010     0.392990    -5.968999
    6.096096     0.304430    -5.019587     0.388022    -5.931064
    6.106106     0.301787    -4.989426     0.383273    -5.893448
    6.116116     0.299193    -4.959519     0.378722    -5.856164
    6.126126     0.296647    -4.929862     0.374349    -5.819213
    6.136136     0.294148    -4.900452     0.370137    -5.782601
    6.146146     0.291694    -4.871282     0.366071    -5.746326
    6.156156     0.289284    -4.842354     0.362137    -5.710389
    6.166166     0.286917    -4.813662     0.358325    -5.674784
    6.176176     0.284592    -4.785199     0.354624    -5.639513
    6.186186     0.282307    -4.756967     0.351024    -5.604568
    6.196196     0.280064    -4.728959     0.347520    -5.569945
    6.206206     0.277860    -4.701172     0.344102    -5.535642
    6.216216     0.275696    -4.673603     0.340767    -5.501652
    6.226226     0.273571    -4.646250     0.337508    -5.467974
    6.236236     0.271487    -4.619109     0.334321    -5.434599
    6.246246     0.269442    -4.592173     0.331201    -5.401523
    6.256256     0.267437    -4.565444     0.328146    -5.368743
    6.266266     0.265473    -4.538918     0.325151    -5.336256
    6.276276     0.263551    -4.512589     0.322215    -5.304053
    6.286286     0.261671    -4.486455     0.319334    -5.272132
    6.296296     0.259835    -4.460514     0.316506    -5.240489
    6.306306     0.258045    -4.434764     0.313730    -5.209121
    6.316316     0.256302    -4.409201     0.311003    -5.178020
    6.326326     0.254609    -4.383822     0.308324    -5.147185
    6.336336     0.252969    -4.358625     0.305691    -5.116611
    6.346346     0.251385    -4.333610     0.303103    -5.086293
    6.356356     0.249861    -4.308770     0.300560    -5.056230
    6.366366     0.248401    -4.284106     0.298059    -5.026415
    6.376376     0.247012    -4.259620     0.295601    -4.996846
    6.386386     0.245699    -4.235310     0.293184    -4.967520
    6.396396     0.244470    -4.211175     0.290809    -4.938431
    6.406406     0.243334    -4.187220     0.288474    -4.909578
    6.416416     0.242298    -4.163448     0.286180    -4.880956
    6.426426     0.241375    -4.139867     0.283926    -4.852561
    6.436436     0.240574    -4.116489     0.281712    -4.824393
    6.446446     0.239908    -4.093326     0.279539    -4.796444
    6.456456     0.239387    -4.070398     0.277408    -4.768715
    6.466466     0.239021    -4.047734     0.275317    -4.741200
    6.476476     0.238813    -4.025369     0.273270    -4.713898
    6.486486     0.238761    -4.003341     0.271266    -4.686805
    6.496496     0.238849    -3.981704     0.269307    -4.659917
    6.506506     0.239044    -3.960510     0.267395    -4.633233
    6.516516     0.239289    -3.939819     0.265532    -4.606750
    6.526526     0.239501    -3.919669     0.263720    -4.580467
    6.536536     0.239570    -3.900084     0.261963    -4.554381
    6.546546     0.239368    -3.881040     0.260264    -4.528490
    6.556556     0.238771    -3.862461     0.258627    -4.502793
    6.566566     0.237681    -3.844230     0.257058    -4.477292
    6.576576     0.236049    -3.826186     0.255561    -4.451986
    6.586586     0.233894    -3.808163     0.254143    -4.426878
    6.596596     0.231292    -3.790020     0.252811    -4.401974
    6.606606     0.228358    -3.771659     0.251573    -4.377278
    6.616616     0.225221    -3.753039     0.250435    -4.352802
    6.626626     0.222000    -3.734157     0.249405    -4.328558
    6.636636     0.218791    -3.715048     0.248489    -4.304564
    6.646646     0.215663    -3.695765     0.247688    -4.280846
    6.656656     0.212659    -3.676364     0.246998    -4.257432
    6.666667     0.209801    -3.656898     0.246407    -4.234353
    6.676676     0.207097    -3.637416     0.245890    -4.211650
    6.686686     0.204545    -3.617955     0.245403    -4.189357
    6.696696     0.202138    -3.598544     0.244887    -4.167499
    6.706707     0.199864    -3.579209     0.244264    -4.146084
    6.716716     0.197713    -3.559966     0.243447    -4.125089
    6.726726     0.195672    -3.540830     0.242354    -4.104458
    6.736736     0.193730    -3.521807     0.240925    -4.084100
    6.746747     0.191876    -3.502907     0.239137    -4.063905
    6.756756     0.190102    -3.484130     0.237011    -4.043763
    6.766766     0.188398    -3.465482     0.234604    -4.023582
    6.776776     0.186759    -3.446965     0.231999    -4.003304
    6.786787     0.185176    -3.428574     0.229282    -3.982905
    6.796797     0.183645    -3.410315     0.226529    -3.962392
    6.806807     0.182162    -3.392183     0.223803    -3.941791
    6.816816     0.180721    -3.374182     0.221144    -3.921138
    6.826826     0.179319    -3.356305     0.218580    -3.900469
    6.836837     0.177952    -3.338553     0.216121    -3.879817
    6.846847     0.176619    -3.320927     0.213773    -3.859215
    6.856857     0.175317    -3.303421     0.211532    -3.838686
    6.866867     0.174043    -3.286037     0.209393    -3.818250
    6.876876     0.172796    -3.268772     0.207348    -3.797920
    6.886887     0.171575    -3.251624     0.205389    -3.777705
    6.896896     0.170377    -3.234593     0.203508    -3.757618
    6.906906     0.169201    -3.217676     0.201697    -3.737660
    6.916917     0.168047    -3.200870     0.199950    -3.717834
    6.926927     0.166914    -3.184176     0.198261    -3.698144
    6.936936     0.165801    -3.167593     0.196623    -3.678592
    6.946947     0.164707    -3.151115     0.195032    -3.659173
    6.956956     0.163631    -3.134747     0.193484    -3.639894
    6.966967     0.162573    -3.118482     0.191975    -3.620748
    6.976976     0.161533    -3.102322     0.190502    -3.601738
    6.986986     0.160511    -3.086263     0.189061    -3.582862
    6.996997     0.159505    -3.070305     0.187651    -3.564117
    7.007007     0.158517    -3.054448     0.186269    -3.545504
    7.017016     0.157545    -3.038689     0.184914    -3.527020
    7.027027     0.156591    -3.023024     0.183583    -3.508662
    7.037036     0.155654    -3.007456     0.182276    -3.490433
    7.047047     0.154734    -2.991982     0.180990    -3.472328
    7.057057     0.153831    -2.976602     0.179726    -3.454345
    7.067067     0.152947    -2.961314     0.178481    -3.436486
    7.077077     0.152081    -2.946114     0.177255    -3.418746
    7.087087     0.151235    -2.931004     0.176048    -3.401126
    7.097096     0.150408    -2.915982     0.174858    -3.383623
    7.107107     0.149603    -2.901046     0.173685    -3.366235
    7.117116     0.148819    -2.886196     0.172528    -3.348963
    7.127127     0.148059    -2.871429     0.171388    -3.331804
    7.137137     0.147325    -2.856746     0.170263    -3.314758
    7.147147     0.146617    -2.842147     0.169153    -3.297822
    7.157157     0.145939    -2.827627     0.168058    -3.280994
    7.167167     0.145293    -2.813190     0.166977    -3.264277
    7.177176     0.144682    -2.798835     0.165911    -3.247665
    7.187187     0.144110    -2.784559     0.164860    -3.231158
    7.197196     0.143581    -2.770366     0.163822    -3.214756
    7.207206     0.143099    -2.756258     0.162799    -3.198459
    7.217217     0.142669    -2.742234     0.161790    -3.182261
    7.227227     0.142298    -2.728302     0.160795    -3.166165
    7.237237     0.141993    -2.714464     0.159814    -3.150168
    7.247247     0.141759    -2.700732     0.158848    -3.134270
    7.257257     0.141603    -2.687113     0.157897    -3.118471
    7.267267     0.141531    -2.673623     0.156960    -3.102766
    7.277277     0.141546    -2.660281     0.156039    -3.087156
    7.287287     0.141649    -2.647111     0.155134    -3.071641
    7.297297     0.141834    -2.634137     0.154245    -3.056219
    7.307307     0.142085    -2.621395     0.153374    -3.040890
    7.317317     0.142374    -2.608916     0.152521    -3.025650
    7.327327     0.142658    -2.596728     0.151687    -3.010502
    7.337337     0.142880    -2.584849     0.150874    -2.995443
    7.347347     0.142968    -2.573274     0.150083    -2.980474
    7.357357     0.142849    -2.561973     0.149315    -2.965594
    7.367367     0.142458    -2.550884     0.148573    -2.950803
    7.377377     0.141757    -2.539921     0.147859    -2.936100
    7.387387     0.140745    -2.528990     0.147176    -2.921490
    7.397398     0.139453    -2.518000     0.146526    -2.906969
    7.407407     0.137944    -2.506888     0.145912    -2.892545
    7.417417     0.136290    -2.495618     0.145338    -2.878219
    7.427427     0.134563    -2.484183     0.144807    -2.863996
    7.437437     0.132825    -2.472597     0.144320    -2.849884
    7.447447     0.131118    -2.460889     0.143880    -2.835891
    7.457457     0.129474    -2.449092     0.143486    -2.822028
    7.467467     0.127909    -2.437235     0.143134    -2.808312
    7.477477     0.126429    -2.425349     0.142814    -2.794755
    7.487487     0.125035    -2.413457     0.142513    -2.781372
    7.497497     0.123724    -2.401579     0.142207    -2.768178
    7.507507     0.122491    -2.389729     0.141865    -2.755174
    7.517517     0.121327    -2.377921     0.141455    -2.742360
    7.527527     0.120228    -2.366162     0.140939    -2.729714
    7.537538     0.119186    -2.354456     0.140289    -2.717202
    7.547547     0.118194    -2.342812     0.139492    -2.704782
    7.557557     0.117249    -2.331228     0.138551    -2.692408
    7.567567     0.116343    -2.319709     0.137485    -2.680037
    7.577577     0.115474    -2.308255     0.136327    -2.667643
    7.587587     0.114637    -2.296868     0.135111    -2.655210
    7.597597     0.113829    -2.285549     0.133872    -2.642741
    7.607607     0.113047    -2.274294     0.132637    -2.630243
    7.617618     0.112289    -2.263104     0.131424    -2.617727
    7.627627     0.111552    -2.251980     0.130248    -2.605213
    7.637637     0.110835    -2.240923     0.129113    -2.592713
    7.647647     0.110136    -2.229928     0.128024    -2.580240
    7.657657     0.109453    -2.218997     0.126979    -2.567806
    7.667668     0.108786    -2.208129     0.125976    -2.555418
    7.677677     0.108133    -2.197323     0.125013    -2.543085
    7.687687     0.107493    -2.186577     0.124086    -2.530810
    7.697698     0.106865    -2.175893     0.123192    -2.518595
    7.707707     0.106249    -2.165267     0.122328    -2.506445
    7.717717     0.105645    -2.154701     0.121490    -2.494360
    7.727727     0.105051    -2.144192     0.120677    -2.482342
    7.737737     0.104467    -2.133742     0.119885    -2.470392
    7.747747     0.103894    -2.123347     0.119113    -2.458509
    7.757758     0.103329    -2.113009     0.118359    -2.446692
    7.767767     0.102774    -2.102725     0.117621    -2.434945
    7.777778     0.102228    -2.092494     0.116899    -2.423263
    7.787787     0.101691    -2.082319     0.116190    -2.411647
    7.797797     0.101163    -2.072198     0.115494    -2.400098
    7.807807     0.100644    -2.062129     0.114810    -2.388614
    7.817817     0.100133    -2.052111     0.114136    -2.377194
     7.82783      0.09963     -2.04214      0.11347     -2.36584
     7.83784      0.09914     -2.03223      0.11282     -2.35455
     7.84785      0.09865     -2.02236      0.11218     -2.34332
     7.85786      0.09818     -2.01254      0.11154     -2.33215
     7.86787      0.09771     -2.00277      0.11091     -2.32105
     7.87788      0.09726     -1.99305      0.11030     -2.31000
     7.88789      0.09681     -1.98337      0.10968     -2.29902
     7.89790      0.09638     -1.97375      0.10908     -2.28809
     7.90791      0.09595     -1.96416      0.10848     -2.27723
     7.91792      0.09554     -1.95463      0.10789     -2.26642
     7.92793      0.09514     -1.94513      0.10731     -2.25568
     7.93794      0.09476     -1.93568      0.10674     -2.24498
     7.94795      0.09439     -1.92628      0.10617     -2.23435
     7.95796      0.09404     -1.91692      0.10560     -2.22377
     7.96797      0.09370     -1.90760      0.10504     -2.21325
     7.97798      0.09339     -1.89833      0.10449     -2.20279
     7.98799      0.09310     -1.88909      0.10395     -2.19237
     7.99800      0.09283     -1.87991      0.10341     -2.18202
     8.00801      0.09259     -1.87077      0.10288     -2.17171
     8.01802      0.09237     -1.86167      0.10235     -2.16146
     8.02803      0.09220     -1.85262      0.10183     -2.15126
     8.03804      0.09206     -1.84362      0.10132     -2.14112
     8.04805      0.09196     -1.83468      0.10081     -2.13103
     8.05806      0.09191     -1.82581      0.10031     -2.12098
     8.06807      0.09191     -1.81700      0.09981     -2.11099
     8.07808      0.09197     -1.80827      0.09932     -2.10105
     8.08809      0.09207     -1.79964      0.09884     -2.09116
     8.09810      0.09223     -1.79112      0.09837     -2.08132
     8.10811      0.09244     -1.78273      0.09790     -2.07152
     8.11812      0.09267     -1.77449      0.09745     -2.06178
     8.12813      0.09292     -1.76643      0.09700     -2.05208
     8.13814      0.09314     -1.75854      0.09656     -2.04243
     8.14815      0.09329     -1.75085      0.09613     -2.03283
     8.15816      0.09333     -1.74333      0.09571     -2.02327
     8.16817      0.09321     -1.73596      0.09530     -2.01377
     8.17818      0.09291     -1.72869      0.09491     -2.00431
     8.18819      0.09240     -1.72145      0.09453     -1.99489
     8.19820      0.09171     -1.71419      0.09416     -1.98553
     8.20821      0.09086     -1.70686      0.09381     -1.97622
     8.21822      0.08990     -1.69944      0.09348     -1.96696
     8.22823      0.08888     -1.69191      0.09317     -1.95775
     8.23824      0.08783     -1.68427      0.09288     -1.94860
     8.24825      0.08680     -1.67655      0.09262     -1.93951
     8.25826      0.08579     -1.66875      0.09237     -1.93049
     8.26827      0.08484     -1.66090      0.09215     -1.92153
     8.27828      0.08393     -1.65303      0.09194     -1.91266
     8.28829      0.08308     -1.64514      0.09175     -1.90387
     8.29830      0.08228     -1.63725      0.09155     -1.89518
     8.30831      0.08152     -1.62937      0.09135     -1.88659
     8.31832      0.08082     -1.62151      0.09111     -1.87809
     8.32833      0.08015     -1.61367      0.09084     -1.86968
     8.33834      0.07952     -1.60587      0.09050     -1.86135
     8.34835      0.07893     -1.59809      0.09009     -1.85308
     8.35836      0.07836     -1.59035      0.08961     -1.84484
     8.36837      0.07782     -1.58265      0.08907     -1.83662
     8.37838      0.07730     -1.57498      0.08847     -1.82839
     8.38839      0.07681     -1.56735      0.08784     -1.82015
     8.39840      0.07633     -1.55976      0.08720     -1.81190
     8.40841      0.07587     -1.55220      0.08655     -1.80364
     8.41842      0.07542     -1.54469      0.08590     -1.79537
     8.42843      0.07499     -1.53721      0.08528     -1.78710
     8.43844      0.07457     -1.52977      0.08467     -1.77885
     8.44845      0.07416     -1.52237      0.08409     -1.77061
     8.45846      0.07376     -1.51500      0.08352     -1.76239
     8.46847      0.07336     -1.50767      0.08298     -1.75419
     8.47848      0.07298     -1.50038      0.08245     -1.74603
     8.48849      0.07261     -1.49312      0.08195     -1.73790
     8.49850      0.07224     -1.48590      0.08146     -1.72981
     8.50851      0.07188     -1.47871      0.08099     -1.72175
     8.51852      0.07153     -1.47156      0.08052     -1.71372
     8.52853      0.07118     -1.46443      0.08008     -1.70574
     8.53854      0.07084     -1.45735      0.07964     -1.69779
     8.54855      0.07050     -1.45029      0.07921     -1.68988
     8.55856      0.07018     -1.44327      0.07879     -1.68200
     8.56857      0.06985     -1.43628      0.07838     -1.67417
     8.57858      0.06953     -1.42932      0.07798     -1.66637
     8.58859      0.06922     -1.42240      0.07758     -1.65861
     8.59860      0.06891     -1.41550      0.07719     -1.65089
     8.60861      0.06861     -1.40864      0.07680     -1.64320
     8.61862      0.06831     -1.40180      0.07643     -1.63555
     8.62863      0.06802     -1.39500      0.07605     -1.62794
     8.63864      0.06773     -1.38822      0.07568     -1.62036
     8.64865      0.06745     -1.38148      0.07532     -1.61282
     8.65866      0.06717     -1.37476      0.07496     -1.60531
     8.66867      0.06690     -1.36807      0.07460     -1.59784
     8.67868      0.06663     -1.36141      0.07425     -1.59041
     8.68869      0.06637     -1.35477      0.07390     -1.58300
     8.69870      0.06612     -1.34817      0.07356     -1.57564
     8.70871      0.06588     -1.34159      0.07321     -1.56830
     8.71872      0.06564     -1.33503      0.07288     -1.56100
     8.72873      0.06541     -1.32851      0.07254     -1.55374
     8.73874      0.06518     -1.32201      0.07221     -1.54650
     8.74875      0.06497     -1.31553      0.07188     -1.53930
     8.75876      0.06477     -1.30908      0.07156     -1.53213
     8.76877      0.06458     -1.30266      0.07123     -1.52500
     8.77878      0.06440     -1.29626      0.07092     -1.51789
     8.78879      0.06424     -1.28988      0.07060     -1.51082
     8.79880      0.06409     -1.28353      0.07029     -1.50378
     8.80881      0.06395     -1.27721      0.06998     -1.49677
     8.81882      0.06384     -1.27092      0.06967     -1.48979
     8.82883      0.06375     -1.26465      0.06937     -1.48284
     8.83884      0.06368     -1.25841      0.06907     -1.47593
     8.84885      0.06364     -1.25221      0.06877     -1.46904
     8.85886      0.06364     -1.24605      0.06848     -1.46218
     8.86887      0.06366     -1.23992      0.06819     -1.45535
     8.87888      0.06372     -1.23385      0.06790     -1.44855
     8.88889      0.06381     -1.22783      0.06762     -1.44178
     8.89890      0.06394     -1.22188      0.06734     -1.43504
     8.90891      0.06411     -1.21601      0.06706     -1.42833
     8.91892      0.06430     -1.21024      0.06679     -1.42165
     8.92893      0.06450     -1.20457      0.06652     -1.41500
     8.93894      0.06469     -1.19902      0.06626     -1.40837
     8.94895      0.06485     -1.19360      0.06600     -1.40177
     8.95896      0.06495     -1.18830      0.06575     -1.39520
     8.96897      0.06495     -1.18311      0.06550     -1.38866
     8.97898      0.06482     -1.17800      0.06526     -1.38215
     8.98899      0.06456     -1.17292      0.06503     -1.37566
     8.99900      0.06417     -1.16784      0.06481     -1.36920
     9.00901      0.06366     -1.16273      0.06459     -1.36277
     9.01902      0.06306     -1.15755      0.06438     -1.35638
     9.02903      0.06240     -1.15229      0.06419     -1.35001
     9.03904      0.06172     -1.14696      0.06400     -1.34367
     9.04905      0.06104     -1.14156      0.06383     -1.33737
     9.05906      0.06037     -1.13611      0.06367     -1.33111
     9.06907      0.05973     -1.13061      0.06352     -1.32489
     9.07908      0.05912     -1.12508      0.06338     -1.31871
     9.08909      0.05855     -1.11954      0.06325     -1.31258
     9.09910      0.05801     -1.11399      0.06312     -1.30650
     9.10911      0.05751     -1.10844      0.06299     -1.30047
     9.11912      0.05704     -1.10290      0.06284     -1.29451
     9.12913      0.05660     -1.09737      0.06268     -1.28859
     9.13914      0.05619     -1.09186      0.06248     -1.28272
     9.14915      0.05580     -1.08637      0.06225     -1.27689
     9.15916      0.05543     -1.08090      0.06198     -1.27109
     9.16917      0.05508     -1.07545      0.06167     -1.26530
     9.17918      0.05474     -1.07002      0.06133     -1.25951
     9.18919      0.05442     -1.06462      0.06097     -1.25372
     9.19920      0.05411     -1.05924      0.06060     -1.24793
     9.20921      0.05381     -1.05388      0.06022     -1.24213
     9.21922      0.05353     -1.04855      0.05985     -1.23633
     9.22923      0.05325     -1.04324      0.05948     -1.23053
     9.23924      0.05298     -1.03795      0.05912     -1.22474
     9.24925      0.05272     -1.03269      0.05877     -1.21896
     9.25926      0.05246     -1.02745      0.05844     -1.21319
     9.26927      0.05222     -1.02224      0.05811     -1.20744
     9.27928      0.05197     -1.01704      0.05780     -1.20170
     9.28929      0.05174     -1.01187      0.05750     -1.19599
     9.29930      0.05150     -1.00672      0.05720     -1.19030
     9.30931      0.05128     -1.00159      0.05692     -1.18463
     9.31932      0.05105     -0.99649      0.05664     -1.17898
     9.32933      0.05083     -0.99140      0.05637     -1.17335
     9.33934      0.05062     -0.98634      0.05610     -1.16775
     9.34935      0.05041     -0.98130      0.05584     -1.16217
     9.35936      0.05020     -0.97627      0.05559     -1.15661
     9.36937      0.04999     -0.97127      0.05534     -1.15108
     9.37938      0.04979     -0.96629      0.05509     -1.14556
     9.38939      0.04960     -0.96133      0.05485     -1.14008
     9.39940      0.04940     -0.95638      0.05461     -1.13461
     9.40941      0.04921     -0.95146      0.05437     -1.12917
     9.41942      0.04902     -0.94656      0.05414     -1.12375
     9.42943      0.04884     -0.94167      0.05391     -1.11835
     9.43944      0.04866     -0.93680      0.05368     -1.11297
     9.44945      0.04848     -0.93195      0.05346     -1.10762
     9.45946      0.04831     -0.92712      0.05324     -1.10229
     9.46947      0.04814     -0.92231      0.05302     -1.09698
     9.47948      0.04797     -0.91751      0.05280     -1.09169
     9.48949      0.04781     -0.91273      0.05258     -1.08642
     9.49950      0.04766     -0.90797      0.05237     -1.08118
     9.50951      0.04750     -0.90323      0.05216     -1.07595
     9.51952      0.04735     -0.89850      0.05195     -1.07075
     9.52953      0.04721     -0.89379      0.05174     -1.06556
     9.53954      0.04708     -0.88909      0.05153     -1.06040
     9.54955      0.04695     -0.88441      0.05133     -1.05526
     9.55956      0.04682     -0.87975      0.05113     -1.05014
     9.56957      0.04671     -0.87510      0.05092     -1.04503
     9.57958      0.04660     -0.87047      0.05073     -1.03995
     9.58959      0.04650     -0.86585      0.05053     -1.03489
     9.59960      0.04641     -0.86125      0.05033     -1.02985
     9.60961      0.04634     -0.85667      0.05014     -1.02483
     9.61962      0.04628     -0.85210      0.04994     -1.01982
     9.62963      0.04623     -0.84756      0.04975     -1.01484
     9.63964      0.04620     -0.84303      0.04956     -1.00987
     9.64965      0.04619     -0.83852      0.04938     -1.00493
     9.65966      0.04620     -0.83404      0.04919     -1.00000
     9.66967      0.04623     -0.82958      0.04901     -0.99509
     9.67968      0.04629     -0.82515      0.04883     -0.99020
     9.68969      0.04637     -0.82076      0.04865     -0.98533
     9.69970      0.04648     -0.81642      0.04847     -0.98048
     9.70971      0.04662     -0.81213      0.04829     -0.97565
     9.71972      0.04678     -0.80790      0.04812     -0.97083
     9.72973      0.04695     -0.80375      0.04795     -0.96603
     9.73974      0.04712     -0.79968      0.04778     -0.96125
     9.74975      0.04727     -0.79569      0.04762     -0.95649
     9.75976      0.04738     -0.79180      0.04745     -0.95174
     9.76977      0.04743     -0.78799      0.04729     -0.94702
     9.77978      0.04740     -0.78424      0.04714     -0.94231
     9.78979      0.04726     -0.78054      0.04699     -0.93762
     9.79980      0.04703     -0.77683      0.04684     -0.93294
     9.80981      0.04670     -0.77311      0.04670     -0.92829
     9.81982      0.04631     -0.76934      0.04656     -0.92365
     9.82983      0.04586     -0.76552      0.04643     -0.91903
     9.83984      0.04538     -0.76164      0.04631     -0.91444
     9.84985      0.04490     -0.75770      0.04619     -0.90986
     9.85986      0.04442     -0.75372      0.04608     -0.90531
     9.86987      0.04396     -0.74970      0.04597     -0.90078
     9.87988      0.04352     -0.74565      0.04588     -0.89628
     9.88989      0.04311     -0.74159      0.04578     -0.89180
     9.89990      0.04273     -0.73752      0.04569     -0.88736
     9.90991      0.04237     -0.73344      0.04560     -0.88295
     9.91992      0.04204     -0.72937      0.04551     -0.87858
     9.92993      0.04173     -0.72530      0.04540     -0.87424
     9.93994      0.04143     -0.72125      0.04528     -0.86993
     9.94995      0.04116     -0.71720      0.04514     -0.86564
     9.95996      0.04090     -0.71317      0.04497     -0.86138
     9.96997      0.04065     -0.70915      0.04478     -0.85712
     9.97998      0.04042     -0.70514      0.04457     -0.85287
     9.98999      0.04020     -0.70115      0.04435     -0.84862
    10.00000      0.03998     -0.69718      0.04412     -0.84437
# 
# 11/06/2019 at 10:27 YAMBO @ dufour [start]
# 11/06/2019 at 10:28                [end]
#  
# Timing   [Min/Max/Average]: 51s/51s/51s
#
# .-Input file : References/00_bse_plus_rim.in_00_bse_plus_rim.in
# | optics                         # [R OPT] Optics
# | bse                            # [R BSE] Bethe Salpeter Equation.
# | bsk                            # [R BSK] Bethe Salpeter Equation kernel
# | bss                            # [R BSS] Bethe Salpeter Equation solver
# | em1s                           # [R Xs] Static Inverse Dielectric Matrix
# | rim_cut                        # [R RIM CUT] Coulomb potential
# | BoseTemp= 0.000000     eV      # Bosonic Temperature
# | X_Threads= 1                   # [OPENMP/X] Number of threads for response functions
# | DIP_Threads= 1                 # [OPENMP/X] Number of threads for dipoles
# | K_Threads= 1                   # [OPENMP/BSK] Number of threads for response functions
# | RandQpts= 1000000              # [RIM] Number of random q-points in the BZ
# | RandGvec= 1            RL      # [RIM] Coulomb interaction RS components
# | CUTGeo= "none"                 # [CUT] Coulomb Cutoff geometry: box/cylinder/sphere/ws X/Y/Z/XY..
# | % CUTBox
# |  0.00     | 0.00     | 0.00     |        # [CUT] [au] Box sides
# | %
# | CUTRadius= 0.000000            # [CUT] [au] Sphere/Cylinder radius
# | CUTCylLen= 0.000000            # [CUT] [au] Cylinder length
# | CUTwsGvec= 0.000000            # [CUT] WS cutoff: number of G to be modified
# | Chimod= "HARTREE"              # [X] IP/Hartree/ALDA/LRC/PF/BSfxc
# | BSEmod= "retarded"             # [BSE] resonant/retarded/coupling
# | BSKmod= "SEX"                  # [BSE] IP/Hartree/HF/ALDA/SEX
# | BSSmod= "d"                    # [BSS] (h)aydock/(d)iagonalization/(i)nversion/(t)ddft`
# | BSENGexx=  4531        RL      # [BSK] Exchange components
# | BSENGBlk= 109          RL      # [BSK] Screened interaction block size
# | #WehCpl                        # [BSK] eh interaction included also in coupling
# | % KfnQP_E
# |  3.500000 | 1.000000 | 1.000000 |        # [EXTQP BSK BSS] E parameters  (c/v) eV|adim|adim
# | %
# | % BEnRange
# |   0.00000 | 10.00000 | eV      # [BSS] Energy range
# | %
# | % BDmRange
# |   0.10000 |  0.10000 | eV      # [BSS] Damping range
# | %
# | BEnSteps= 1000                 # [BSS] Energy steps
# | % BLongDir
# | 0.1000E-4 | 0.000    | 0.000    |        # [BSS] [cc] Electric Field
# | %
# | % BSEBands
# |  1 | 2 |                       # [BSK] Bands range
# | %
# | WRbsWF                         # [BSS] Write to disk excitonic the WFs
# | % BndsRnXs
# |   1 | 20 |                     # [Xs] Polarization function bands
# | %
# | NGsBlkXs= 109          RL      # [Xs] Response block size
# | % DmRngeXs
# |   0.10000 |  0.10000 | eV      # [Xs] Damping range
# | %
# | % LongDrXs
# | 0.1000E-4 | 0.000    | 0.000    |        # [Xs] [cc] Electric Field
# | %
