#                                                           
#  __  __   ________   ___ __ __    _______   ______        
# /_/\/_/\ /_______/\ /__//_//_/\ /_______/\ /_____/\       
# \ \ \ \ \\::: _  \ \\::\| \| \ \\::: _  \ \\:::_ \ \      
#  \:\_\ \ \\::(_)  \ \\:.      \ \\::(_)  \/_\:\ \ \ \     
#   \::::_\/ \:: __  \ \\:.\-/\  \ \\::  _  \ \\:\ \ \ \    
#     \::\ \  \:.\ \  \ \\. \  \  \ \\::(_)  \ \\:\_\ \ \   
#      \__\/   \__\/\__\/ \__\/ \__\/ \_______\/ \_____\/   
#                                                           
#                                                           
# GPL Version 4.4.0 Revision 148. (Based on r.16920 h.961a8d
#                  MPI+SLK+OpenMP Build                     
#                http://www.yambo-code.org                  
#
# Absorption @ Q(1) [q->0 direction] :0.1000E-4  0.000     0.000   
#
#
# - Energies      are  Analyt. E
# - Wavefunctions are +AMGB (for 2D systems)(C)
#
# - The Green`s function is Retarded -
# - Using the Length Gauge -
# - [r,Vnl] *is* included -
#
#
#    E/ev[1]      EPS-Im[2]    EPS-Re[3]    EPSo-Im[4]   EPSo-Re[5]
#
     0.00000      0.00000     11.88611      0.00000     12.04811
   0.1001E-1    0.1491E-2     11.89       0.1550E-2     12.05   
   0.2002E-1    0.2982E-2     11.89       0.3100E-2     12.05   
   0.3003E-1    0.4473E-2     11.89       0.4651E-2     12.05   
   0.4004E-1    0.5964E-2     11.89       0.6202E-2     12.05   
   0.5005E-1    0.7456E-2     11.89       0.7753E-2     12.05   
   0.6006E-1    0.8949E-2     11.89       0.9305E-2     12.05   
   0.7007E-1    0.1044E-1     11.89       0.1086E-1     12.05   
   0.8008E-1    0.1194E-1     11.89       0.1241E-1     12.05   
     0.09009      0.01343     11.89214      0.01397     12.05438
     0.10010      0.01493     11.89355      0.01552     12.05586
     0.11011      0.01643     11.89512      0.01708     12.05748
     0.12012      0.01792     11.89683      0.01864     12.05927
     0.13013      0.01942     11.89870      0.02020     12.06120
     0.14014      0.02093     11.90071      0.02176     12.06330
     0.15015      0.02243     11.90287      0.02332     12.06555
     0.16016      0.02394     11.90519      0.02489     12.06795
     0.17017      0.02544     11.90766      0.02646     12.07052
     0.18018      0.02695     11.91027      0.02803     12.07324
     0.19019      0.02846     11.91303      0.02960     12.07611
     0.20020      0.02998     11.91595      0.03118     12.07915
     0.21021      0.03150     11.91903      0.03275     12.08234
     0.22022      0.03302     11.92224      0.03433     12.08568
     0.23023      0.03454     11.92561      0.03592     12.08919
     0.24024      0.03606     11.92914      0.03750     12.09286
     0.25025      0.03759     11.93281      0.03909     12.09668
     0.26026      0.03912     11.93664      0.04069     12.10066
     0.27027      0.04066     11.94062      0.04228     12.10480
     0.28028      0.04219     11.94476      0.04388     12.10910
     0.29029      0.04374     11.94905      0.04549     12.11356
     0.30030      0.04528     11.95349      0.04709     12.11818
     0.31031      0.04683     11.95809      0.04871     12.12296
     0.32032      0.04838     11.96284      0.05032     12.12790
     0.33033      0.04994     11.96774      0.05194     12.13301
     0.34034      0.05150     11.97281      0.05357     12.13827
     0.35035      0.05307     11.97803      0.05520     12.14370
     0.36036      0.05464     11.98341      0.05683     12.14929
     0.37037      0.05621     11.98893      0.05847     12.15505
     0.38038      0.05779     11.99462      0.06011     12.16096
     0.39039      0.05937     12.00047      0.06176     12.16705
     0.40040      0.06096     12.00648      0.06342     12.17329
     0.41041      0.06256     12.01264      0.06508     12.17971
     0.42042      0.06416     12.01897      0.06674     12.18628
     0.43043      0.06576     12.02545      0.06842     12.19303
     0.44044      0.06737     12.03209      0.07009     12.19994
     0.45045      0.06899     12.03890      0.07178     12.20702
     0.46046      0.07061     12.04587      0.07347     12.21427
     0.47047      0.07224     12.05299      0.07516     12.22169
     0.48048      0.07388     12.06029      0.07687     12.22927
     0.49049      0.07552     12.06774      0.07858     12.23703
     0.50050      0.07717     12.07536      0.08030     12.24496
     0.51051      0.07882     12.08315      0.08202     12.25306
     0.52052      0.08048     12.09110      0.08375     12.26133
     0.53053      0.08215     12.09921      0.08549     12.26978
     0.54054      0.08383     12.10750      0.08724     12.27840
     0.55055      0.08551     12.11595      0.08899     12.28719
     0.56056      0.08720     12.12456      0.09075     12.29616
     0.57057      0.08890     12.13335      0.09252     12.30530
     0.58058      0.09061     12.14231      0.09430     12.31463
     0.59059      0.09232     12.15144      0.09609     12.32413
     0.60060      0.09404     12.16074      0.09789     12.33381
     0.61061      0.09577     12.17021      0.09969     12.34366
     0.62062      0.09751     12.17986      0.10151     12.35370
     0.63063      0.09926     12.18967      0.10333     12.36392
     0.64064      0.10102     12.19967      0.10516     12.37433
     0.65065      0.10278     12.20984      0.10701     12.38491
     0.66066      0.10456     12.22019      0.10886     12.39569
     0.67067      0.10634     12.23070      0.11072     12.40664
     0.68068      0.10814     12.24141      0.11259     12.41778
     0.69069      0.10994     12.25229      0.11448     12.42911
     0.70070      0.11176     12.26335      0.11637     12.44063
     0.71071      0.11358     12.27460      0.11828     12.45234
     0.72072      0.11541     12.28602      0.12019     12.46424
     0.73073      0.11726     12.29764      0.12212     12.47633
     0.74074      0.11912     12.30943      0.12406     12.48861
     0.75075      0.12098     12.32141      0.12601     12.50109
     0.76076      0.12286     12.33357      0.12797     12.51376
     0.77077      0.12475     12.34593      0.12995     12.52662
     0.78078      0.12665     12.35847      0.13193     12.53969
     0.79079      0.12857     12.37121      0.13393     12.55295
     0.80080      0.13049     12.38413      0.13595     12.56642
     0.81081      0.13243     12.39725      0.13797     12.58008
     0.82082      0.13438     12.41056      0.14001     12.59395
     0.83083      0.13634     12.42406      0.14206     12.60802
     0.84084      0.13832     12.43777      0.14413     12.62230
     0.85085      0.14031     12.45167      0.14621     12.63678
     0.86086      0.14231     12.46577      0.14831     12.65148
     0.87087      0.14433     12.48007      0.15042     12.66638
     0.88088      0.14636     12.49457      0.15254     12.68149
     0.89089      0.14840     12.50928      0.15468     12.69682
     0.90090      0.15046     12.52419      0.15683     12.71235
     0.91091      0.15254     12.53930      0.15901     12.72811
     0.92092      0.15462     12.55462      0.16119     12.74408
     0.93093      0.15673     12.57016      0.16340     12.76027
     0.94094      0.15885     12.58590      0.16562     12.77668
     0.95095      0.16098     12.60185      0.16785     12.79332
     0.96096      0.16313     12.61802      0.17011     12.81017
     0.97097      0.16530     12.63440      0.17238     12.82726
     0.98098      0.16749     12.65100      0.17467     12.84457
     0.99099      0.16969     12.66782      0.17697     12.86210
     1.00100      0.17191     12.68486      0.17930     12.87987
     1.01101      0.17414     12.70212      0.18164     12.89788
     1.02102      0.17640     12.71961      0.18400     12.91611
     1.03103      0.17867     12.73732      0.18639     12.93458
     1.04104      0.18096     12.75525      0.18879     12.95330
     1.05105      0.18327     12.77342      0.19121     12.97225
     1.06106      0.18559     12.79182      0.19365     12.99144
     1.07107      0.18794     12.81044      0.19612     13.01088
     1.08108      0.19031     12.82931      0.19860     13.03056
     1.09109      0.19270     12.84841      0.20111     13.05050
     1.10110      0.19510     12.86775      0.20363     13.07068
     1.11111      0.19753     12.88733      0.20618     13.09112
     1.12112      0.19998     12.90716      0.20876     13.11181
     1.13113      0.20245     12.92723      0.21135     13.13276
     1.14114      0.20494     12.94755      0.21397     13.15396
     1.15115      0.20746     12.96811      0.21661     13.17544
     1.16116      0.21000     12.98893      0.21928     13.19717
     1.17117      0.21256     13.01000      0.22197     13.21917
     1.18118      0.21514     13.03133      0.22469     13.24144
     1.19119      0.21775     13.05291      0.22743     13.26399
     1.20120      0.22038     13.07476      0.23020     13.28680
     1.21121      0.22304     13.09687      0.23300     13.30990
     1.22122      0.22572     13.11924      0.23582     13.33327
     1.23123      0.22843     13.14189      0.23867     13.35693
     1.24124      0.23116     13.16481      0.24154     13.38087
     1.25125      0.23392     13.18800      0.24445     13.40509
     1.26126      0.23671     13.21146      0.24738     13.42961
     1.27127      0.23952     13.23520      0.25035     13.45443
     1.28128      0.24236     13.25923      0.25334     13.47954
     1.29129      0.24523     13.28353      0.25636     13.50494
     1.30130      0.24813     13.30813      0.25942     13.53065
     1.31131      0.25106     13.33302      0.26250     13.55667
     1.32132      0.25402     13.35819      0.26562     13.58299
     1.33133      0.25701     13.38367      0.26877     13.60963
     1.34134      0.26003     13.40944      0.27196     13.63658
     1.35135      0.26308     13.43552      0.27517     13.66385
     1.36136      0.26616     13.46190      0.27843     13.69144
     1.37137      0.26927     13.48859      0.28171     13.71936
     1.38138      0.27242     13.51559      0.28504     13.74760
     1.39139      0.27560     13.54290      0.28839     13.77618
     1.40140      0.27882     13.57053      0.29179     13.80510
     1.41141      0.28207     13.59849      0.29522     13.83435
     1.42142      0.28536     13.62677      0.29870     13.86395
     1.43143      0.28868     13.65538      0.30221     13.89389
     1.44144      0.29204     13.68432      0.30576     13.92418
     1.45145      0.29544     13.71360      0.30935     13.95483
     1.46146      0.29887     13.74321      0.31298     13.98584
     1.47147      0.30235     13.77317      0.31665     14.01721
     1.48148      0.30586     13.80348      0.32037     14.04895
     1.49149      0.30942     13.83414      0.32413     14.08106
     1.50150      0.31301     13.86515      0.32794     14.11355
     1.51151      0.31665     13.89652      0.33178     14.14642
     1.52152      0.32033     13.92826      0.33568     14.17966
     1.53153      0.32405     13.96037      0.33962     14.21331
     1.54154      0.32782     13.99284      0.34361     14.24734
     1.55155      0.33163     14.02570      0.34765     14.28178
     1.56156      0.33549     14.05893      0.35174     14.31661
     1.57157      0.33939     14.09256      0.35588     14.35186
     1.58158      0.34335     14.12656      0.36007     14.38752
     1.59159      0.34735     14.16097      0.36431     14.42360
     1.60160      0.35140     14.19577      0.36861     14.46010
     1.61161      0.35550     14.23098      0.37296     14.49703
     1.62162      0.35965     14.26660      0.37736     14.53439
     1.63163      0.36386     14.30264      0.38183     14.57220
     1.64164      0.36811     14.33910      0.38635     14.61045
     1.65165      0.37242     14.37597      0.39093     14.64916
     1.66166      0.37679     14.41329      0.39556     14.68832
     1.67167      0.38122     14.45103      0.40026     14.72794
     1.68168      0.38570     14.48922      0.40503     14.76804
     1.69169      0.39024     14.52786      0.40985     14.80861
     1.70170      0.39484     14.56695      0.41474     14.84966
     1.71171      0.39950     14.60650      0.41970     14.89120
     1.72172      0.40422     14.64651      0.42473     14.93323
     1.73173      0.40900     14.68700      0.42982     14.97577
     1.74174      0.41386     14.72797      0.43498     15.01882
     1.75175      0.41877     14.76942      0.44022     15.06238
     1.76176      0.42376     14.81136      0.44553     15.10646
     1.77177      0.42881     14.85380      0.45091     15.15108
     1.78178      0.43393     14.89674      0.45637     15.19623
     1.79179      0.43913     14.94020      0.46191     15.24193
     1.80180      0.44439     14.98417      0.46752     15.28817
     1.81181      0.44973     15.02867      0.47322     15.33498
     1.82182      0.45515     15.07370      0.47900     15.38236
     1.83183      0.46065     15.11927      0.48486     15.43032
     1.84184      0.46622     15.16539      0.49081     15.47886
     1.85185      0.47188     15.21207      0.49685     15.52799
     1.86186      0.47761     15.25931      0.50298     15.57773
     1.87187      0.48344     15.30713      0.50920     15.62808
     1.88188      0.48934     15.35553      0.51552     15.67905
     1.89189      0.49534     15.40452      0.52193     15.73065
     1.90190      0.50142     15.45410      0.52843     15.78289
     1.91191      0.50760     15.50429      0.53504     15.83577
     1.92192      0.51387     15.55510      0.54175     15.88932
     1.93193      0.52024     15.60653      0.54857     15.94354
     1.94194      0.52670     15.65860      0.55549     15.99843
     1.95195      0.53327     15.71131      0.56252     16.05402
     1.96196      0.53993     15.76468      0.56966     16.11031
     1.97197      0.54670     15.81871      0.57692     16.16731
     1.98198      0.55358     15.87342      0.58429     16.22503
     1.99199      0.56057     15.92881      0.59179     16.28349
     2.00200      0.56766     15.98490      0.59940     16.34269
     2.01201      0.57488     16.04170      0.60714     16.40266
     2.02202      0.58220     16.09922      0.61501     16.46339
     2.03203      0.58965     16.15746      0.62301     16.52491
     2.04204      0.59722     16.21645      0.63115     16.58723
     2.05205      0.60492     16.27620      0.63942     16.65036
     2.06206      0.61274     16.33671      0.64783     16.71430
     2.07207      0.62069     16.39800      0.65638     16.77909
     2.08208      0.62878     16.46008      0.66508     16.84473
     2.09209      0.63700     16.52297      0.67393     16.91124
     2.10210      0.64537     16.58667      0.68294     16.97863
     2.11211      0.65387     16.65121      0.69210     17.04691
     2.12212      0.66253     16.71660      0.70143     17.11611
     2.13213      0.67133     16.78285      0.71092     17.18623
     2.14214      0.68029     16.84998      0.72058     17.25731
     2.15215      0.68941     16.91799      0.73042     17.32934
     2.16216      0.69869     16.98692      0.74043     17.40235
     2.17217      0.70813     17.05677      0.75063     17.47635
     2.18218      0.71775     17.12756      0.76102     17.55137
     2.19219      0.72754     17.19930      0.77159     17.62742
     2.20220      0.73750     17.27201      0.78237     17.70453
     2.21221      0.74765     17.34573      0.79335     17.78271
     2.22222      0.75799     17.42045      0.80453     17.86197
     2.23223      0.76852     17.49620      0.81593     17.94235
     2.24224      0.77925     17.57300      0.82755     18.02387
     2.25225      0.79018     17.65085      0.83939     18.10653
     2.26226      0.80132     17.72980      0.85146     18.19038
     2.27227      0.81267     17.80986      0.86377     18.27542
     2.28228      0.82424     17.89104      0.87632     18.36168
     2.29229      0.83603     17.97337      0.88912     18.44919
     2.30230      0.84806     18.05687      0.90218     18.53798
     2.31231      0.86032     18.14157      0.91550     18.62805
     2.32232      0.87283     18.22749      0.92909     18.71945
     2.33233      0.88558     18.31465      0.94296     18.81220
     2.34234      0.89859     18.40307      0.95711     18.90632
     2.35235      0.91187     18.49279      0.97156     19.00185
     2.36236      0.92542     18.58381      0.98632     19.09881
     2.37237      0.93924     18.67620      1.00138     19.19724
     2.38238      0.95336     18.76994      1.01676     19.29715
     2.39239      0.96777     18.86509      1.03248     19.39860
     2.40240      0.98248     18.96167      1.04853     19.50159
     2.41241      0.99750     19.05970      1.06493     19.60618
     2.42242      1.01284     19.15922      1.08169     19.71239
     2.43243      1.02852     19.26026      1.09882     19.82026
     2.44244      1.04453     19.36286      1.11633     19.92983
     2.45245      1.06090     19.46704      1.13424     20.04113
     2.46246      1.07762     19.57285      1.15255     20.15420
     2.47247      1.09472     19.68031      1.17128     20.26908
     2.48248      1.11220     19.78945      1.19043     20.38582
     2.49249      1.13007     19.90033      1.21003     20.50445
     2.50250      1.14835     20.01297      1.23009     20.62501
     2.51251      1.16705     20.12744      1.25062     20.74755
     2.52252      1.18618     20.24374      1.27164     20.87213
     2.53253      1.20576     20.36193      1.29316     20.99878
     2.54254      1.22580     20.48206      1.31520     21.12754
     2.55255      1.24631     20.60416      1.33778     21.25849
     2.56256      1.26731     20.72829      1.36091     21.39166
     2.57257      1.28882     20.85449      1.38461     21.52712
     2.58258      1.31085     20.98283      1.40891     21.66491
     2.59259      1.33342     21.11332      1.43381     21.80509
     2.60260      1.35655     21.24606      1.45935     21.94772
     2.61261      1.38025     21.38105      1.48555     22.09287
     2.62262      1.40455     21.51839      1.51242     22.24060
     2.63263      1.42946     21.65811      1.53999     22.39096
     2.64264      1.45501     21.80030      1.56828     22.54405
     2.65265      1.48122     21.94499      1.59733     22.69991
     2.66266      1.50811     22.09228      1.62716     22.85862
     2.67267      1.53571     22.24219      1.65779     23.02026
     2.68268      1.56404     22.39482      1.68926     23.18491
     2.69269      1.59313     22.55025      1.72160     23.35264
     2.70270      1.62300     22.70850      1.75483     23.52354
     2.71271      1.65369     22.86971      1.78900     23.69770
     2.72272      1.68522     23.03393      1.82413     23.87520
     2.73273      1.71762     23.20122      1.86027     24.05614
     2.74274      1.75093     23.37171      1.89746     24.24062
     2.75275      1.78519     23.54545      1.93573     24.42874
     2.76276      1.82042     23.72254      1.97513     24.62059
     2.77277      1.85667     23.90308      2.01570     24.81628
     2.78278      1.89397     24.08716      2.05749     25.01594
     2.79279      1.93237     24.27488      2.10055     25.21966
     2.80280      1.97192     24.46636      2.14493     25.42759
     2.81281      2.01264     24.66169      2.19068     25.63983
     2.82282      2.05461     24.86100      2.23787     25.85652
     2.83283      2.09786     25.06439      2.28656     26.07780
     2.84284      2.14244     25.27199      2.33680     26.30380
     2.85285      2.18843     25.48393      2.38866     26.53469
     2.86286      2.23586     25.70033      2.44222     26.77060
     2.87287      2.28481     25.92134      2.49756     27.01169
     2.88288      2.33534     26.14711      2.55474     27.25814
     2.89289      2.38752     26.37778      2.61385     27.51012
     2.90290      2.44142     26.61349      2.67499     27.76781
     2.91291      2.49712     26.85443      2.73824     28.03139
     2.92292      2.55470     27.10075      2.80370     28.30107
     2.93293      2.61425     27.35262      2.87147     28.57705
     2.94294      2.67585     27.61024      2.94168     28.85954
     2.95295      2.73960     27.87380      3.01443     29.14878
     2.96296      2.80561     28.14350      3.08984     29.44499
     2.97297      2.87397     28.41954      3.16806     29.74842
     2.98298      2.94481     28.70214      3.24922     30.05933
     2.99299      3.01824     28.99155      3.33346     30.37799
     3.00300      3.09440     29.28798      3.42096     30.70468
     3.01301      3.17341     29.59170      3.51187     31.03971
     3.02302      3.25543     29.90296      3.60637     31.38336
     3.03303      3.34060     30.22204      3.70466     31.73599
     3.04304      3.42910     30.54923      3.80694     32.09792
     3.05305      3.52109     30.88484      3.91343     32.46953
     3.06306      3.61676     31.22916      4.02436     32.85117
     3.07307      3.71631     31.58255      4.13998     33.24327
     3.08308      3.81995     31.94535      4.26056     33.64621
     3.09309      3.92791     32.31792      4.38638     34.06047
     3.10310      4.04043     32.70067      4.51775     34.48648
     3.11311      4.15777     33.09397      4.65500     34.92475
     3.12312      4.28021     33.49828      4.79849     35.37579
     3.13313      4.40804     33.91405      4.94859     35.84013
     3.14314      4.54159     34.34173      5.10571     36.31837
     3.15315      4.68120     34.78184      5.27030     36.81108
     3.16316      4.82724     35.23490      5.44284     37.31894
     3.17317      4.98010     35.70147      5.62383     37.84259
     3.18318      5.14022     36.18214      5.81383     38.38277
     3.19319      5.30806     36.67752      6.01346     38.94023
     3.20320      5.48413     37.18829      6.22336     39.51577
     3.21321      5.66895     37.71512      6.44423     40.11024
     3.22322      5.86313     38.25878      6.67687     40.72454
     3.23323      6.06729     38.82000      6.92209     41.35962
     3.24324      6.28213     39.39965      7.18083     42.01652
     3.25325      6.50839     39.99858      7.45407     42.69629
     3.26326      6.74690     40.61775      7.74291     43.40009
     3.27327      6.99853     41.25810      8.04854     44.12912
     3.28328      7.26428     41.92073      8.37228     44.88470
     3.29329      7.54518     42.60671      8.71554     45.66817
     3.30330      7.84241     43.31724      9.07994     46.48103
     3.31331      8.15723     44.05357      9.46718     47.32481
     3.32332      8.49105     44.81703      9.87921     48.20119
     3.33333      8.84540     45.60908     10.31812     49.11190
     3.34334      9.22197     46.43116     10.78629     50.05885
     3.35335      9.62263     47.28498     11.28630     51.04403
     3.36336     10.04944     48.17216     11.82106     52.06955
     3.37337     10.50470     49.09460     12.39378     53.13768
     3.38338     10.99092     50.05416     13.00805     54.25078
     3.39339     11.51093     51.05297     13.66790     55.41144
     3.40340     12.06785     52.09321     14.37783     56.62231
     3.41341     12.66517     53.17713     15.14284     57.88617
     3.42342     13.30684     54.30730     15.96869     59.20611
     3.43343     13.99721     55.48627     16.86174     60.58518
     3.44344     14.74119     56.71682     17.82922     62.02662
     3.45345     15.54429     58.00175     18.87930     63.53374
     3.46346     16.41279     59.34423     20.02135     65.11009
     3.47347     17.35372     60.74730     21.26591     66.75907
     3.48348     18.37505     62.21424     22.62503     68.48410
     3.49349     19.48579     63.74832     24.11244     70.28842
     3.50350     20.69632     65.35301     25.74402     72.17522
     3.51351     22.01836     67.03159     27.53782     74.14704
     3.52352     23.46531     68.78721     29.51461     76.20581
     3.53353     25.05249     70.62276     31.69822     78.35239
     3.54354     26.79763     72.54089     34.11637     80.58642
     3.55355     28.72094     74.54340     36.80074     82.90519
     3.56356     30.84571     76.63108     39.78789     85.30325
     3.57357     33.19868     78.80329     43.11976     87.77104
     3.58358     35.81098     81.05758     46.84492     90.29382
     3.59359     38.71815     83.38837     51.01840     92.84922
     3.60360     41.96104     85.78626     55.70259     95.40480
     3.61361     45.58696     88.23669     60.96803     97.91512
      3.6236      49.6495      90.7176      66.8919     100.3166
      3.6336      54.2096      93.1973      73.5573     102.5225
      3.6436      59.3353      95.6306      81.0496     104.4157
      3.6537      65.1021      97.9555      89.4515     105.8413
      3.6637      71.5905     100.0866      98.8312     106.5972
      3.6737      78.8834     101.9094     109.2280     106.4261
      3.6837      87.0596     103.2715     120.6272     105.0111
      3.6937      96.1852     103.9752     132.9308     101.9783
      3.7037     106.2957     103.7691     145.9147      96.9144
      3.7137     117.3748     102.3434     159.1889      89.4069
      3.7237     129.3212      99.3344     172.1672      79.1151
      3.7337     141.9127      94.3406     184.0717      65.8666
      3.7437     154.7632      86.9644     193.9882      49.7712
      3.7538     167.2968      76.8811     200.9984      31.3029
      3.7638     178.7510      63.9355     204.3612      11.3107
      3.7738     188.2391      48.2474     203.6935      -9.0862
      3.7838     194.8759      30.2937     199.0731     -28.6896
      3.7938     197.9565      10.9106     191.0182     -46.4505
      3.8038     197.1296      -8.8081     180.3502     -61.6381
      3.8138     192.4919     -27.7071     168.0035     -73.9053
      3.8238     184.5623     -44.7818     154.8582     -83.2465
      3.8338     174.1447     -59.3421     141.6334     -89.9010
      3.8438     162.1453     -71.0677     128.8487     -94.2434
      3.8539     149.4095     -79.9678     116.8340     -96.6927
      3.8639     136.6246     -86.2822     105.7678     -97.6523
      3.8739     124.2847     -90.3769      95.7176     -97.4784
      3.8839     112.7013     -92.6580      86.6759     -96.4680
      3.8939     102.0412     -93.5141      78.5922     -94.8593
     3.90390     92.36538    -93.28741     71.39194    -92.83791
     3.91391     83.66505    -92.26273     64.99136    -90.54556
     3.92392     75.88881    -90.66789     59.30466    -88.08817
     3.93393     68.96432    -88.68044     54.25071    -85.54420
     3.94394     62.80996    -86.43561     49.75446    -82.97066
     3.95395     57.34357    -84.03474     45.74847    -80.40847
     3.96396     52.48616    -81.55241     42.17238    -77.88602
     3.97397     48.16571    -79.04296     38.97362    -75.42303
     3.98398     44.31717    -76.54523     36.10610    -73.03234
     3.99399     40.88294    -74.08656     33.52983    -70.72204
     4.00400     37.81206    -71.68530     31.20981    -68.49628
     4.01401     35.06038    -69.35368     29.11597    -66.35694
     4.02402     32.58940    -67.09921     27.22217    -64.30396
     4.03403     30.36582    -64.92600     25.50578    -62.33606
     4.04404     28.36049    -62.83548     23.94701    -60.45081
     4.05405     26.54843    -60.82751     22.52883    -58.64547
     4.06406     24.90792    -58.90071     21.23641    -56.91681
     4.07407     23.42014    -57.05285     20.05686    -55.26147
     4.08408     22.06866    -55.28094     18.97884    -53.67582
     4.09409     20.83934    -53.58186     17.99262    -52.15643
     4.10410     19.71990    -51.95232     17.08972    -50.69991
     4.11411     18.69955    -50.38865     16.26264    -49.30277
     4.12412     17.76905    -48.88746     15.50501    -47.96191
     4.13413     16.92036    -47.44532     14.81128    -46.67429
     4.14414     16.14653    -46.05894     14.17671    -45.43713
     4.15415     15.44151    -44.72498     13.59719    -44.24771
     4.16416     14.80019    -43.44044     13.06932    -43.10371
     4.17417     14.21823    -42.20243     12.59030    -42.00308
     4.18418     13.69201    -41.00830     12.15787    -40.94409
     4.19419     13.21854    -39.85544     11.77023    -39.92526
     4.20420     12.79548    -38.74166     11.42609    -38.94575
     4.21421     12.42110    -37.66497     11.12454    -38.00519
     4.22422     12.09426    -36.62374     10.86499    -37.10394
     4.23423     11.81434    -35.61660     10.64701    -36.24308
     4.24424     11.58134    -34.64276     10.47015    -35.42477
     4.25425     11.39578    -33.70195     10.33364    -34.65229
     4.26426     11.25872    -32.79468     10.23593    -33.93022
     4.27427     11.17167    -31.92225     10.17406    -33.26425
     4.28428     11.13653    -31.08723     10.14293    -32.66111
     4.29429     11.15538    -30.29359     10.13446    -32.12775
     4.30430     11.23015    -29.54715     10.13691    -31.67017
     4.31431     11.36216    -28.85577     10.13478    -31.29143
     4.32432     11.55131    -28.22987     10.10968    -30.98964
     4.33433     11.79497    -27.68240     10.04261    -30.75607
     4.34434     12.08652    -27.22858      9.91737    -30.57460
     4.35435     12.41366    -26.88490      9.72420    -30.42328
     4.36436     12.75673    -26.66699      9.46217    -30.27786
     4.37437     13.08778    -26.58638      9.13932    -30.11624
     4.38438     13.37142    -26.64595      8.77024    -29.92204
     4.39439     13.56820    -26.83556      8.37258    -29.68637
     4.40440     13.64087    -27.12937      7.96347    -29.40731
     4.41441     13.56234    -27.48684      7.55727    -29.08822
     4.42442     13.32236    -27.85856      7.16445    -28.73546
     4.43443     12.93028    -28.19514      6.79179    -28.35663
     4.44444     12.41229    -28.45619      6.44294    -27.95924
     4.45445     11.80471    -28.61606      6.11926    -27.55000
     4.46446     11.14598    -28.66488      5.82053    -27.13444
     4.47447     10.47053    -28.60588      5.54562    -26.71704
     4.48448      9.80522    -28.45097      5.29288    -26.30117
     4.49449      9.16866    -28.21626      5.06044    -25.88942
     4.50450      8.57198    -27.91878      4.84640    -25.48354
     4.51451      8.02063    -27.57437      4.64893    -25.08485
     4.52452      7.51596    -27.19668      4.46635    -24.69419
     4.53453      7.05677    -26.79689      4.29712    -24.31210
     4.54454      6.64027    -26.38377      4.13986    -23.93885
     4.55455      6.26302    -25.96410      3.99334    -23.57459
     4.56456      5.92127    -25.54289      3.85648    -23.21929
     4.57457      5.61137    -25.12390      3.72835    -22.87289
     4.58458      5.32981    -24.70971      3.60809    -22.53520
     4.59459      5.07345    -24.30224      3.49497    -22.20604
     4.60460      4.83942    -23.90271      3.38835    -21.88517
     4.61461      4.62522    -23.51194      3.28764    -21.57237
     4.62462      4.42859    -23.13039      3.19235    -21.26736
     4.63463      4.24761    -22.75829      3.10203    -20.96990
     4.64464      4.08057    -22.39574      3.01628    -20.67974
     4.65465      3.92597    -22.04263      2.93475    -20.39661
     4.66466      3.78253    -21.69882      2.85711    -20.12026
     4.67467      3.64912    -21.36408      2.78310    -19.85046
     4.68468      3.52475    -21.03821      2.71245    -19.58699
     4.69469      3.40854    -20.72087      2.64494    -19.32960
     4.70470      3.29974    -20.41179      2.58036    -19.07809
     4.71471      3.19769    -20.11068      2.51853    -18.83225
     4.72472      3.10180    -19.81722      2.45928    -18.59188
     4.73473      3.01154    -19.53112      2.40246    -18.35678
     4.74474      2.92647    -19.25210      2.34792    -18.12678
     4.75475      2.84618    -18.97984      2.29555    -17.90169
     4.76476      2.77031    -18.71409      2.24522    -17.68136
     4.77477      2.69853    -18.45459      2.19684    -17.46560
     4.78478      2.63058    -18.20106      2.15031    -17.25428
     4.79479      2.56619    -17.95325      2.10555    -17.04723
     4.80480      2.50515    -17.71095      2.06247    -16.84434
     4.81481      2.44726    -17.47392      2.02101    -16.64544
     4.82482      2.39235    -17.24191      1.98110    -16.45041
     4.83483      2.34026    -17.01476      1.94269    -16.25911
     4.84484      2.29086    -16.79224      1.90572    -16.07145
     4.85485      2.24403    -16.57415      1.87017    -15.88729
     4.86486      2.19968    -16.36031      1.83598    -15.70652
     4.87487      2.15772    -16.15055      1.80313    -15.52904
     4.88488      2.11809    -15.94467      1.77159    -15.35474
     4.89489      2.08074    -15.74253      1.74136    -15.18353
     4.90490      2.04563    -15.54395      1.71241    -15.01531
     4.91491      2.01275    -15.34879      1.68476    -14.85001
     4.92492      1.98208    -15.15690      1.65841    -14.68753
     4.93493      1.95366    -14.96813      1.63337    -14.52782
     4.94494      1.92751    -14.78235      1.60968    -14.37079
     4.95495      1.90369    -14.59944      1.58738    -14.21642
     4.96496      1.88227    -14.41928      1.56650    -14.06465
     4.97497      1.86337    -14.24177      1.54713    -13.91547
     4.98498      1.84711    -14.06681      1.52933    -13.76889
     4.99499      1.83366    -13.89436      1.51319    -13.62495
     5.00500      1.82322    -13.72435      1.49880    -13.48371
     5.01501      1.81603    -13.55678      1.48627    -13.34530
     5.02502      1.81237    -13.39168      1.47567    -13.20990
     5.03503      1.81257    -13.22915      1.46709    -13.07778
     5.04504      1.81702    -13.06934      1.46052    -12.94927
     5.05505      1.82615    -12.91253      1.45591    -12.82479
     5.06506      1.84043    -12.75910      1.45302    -12.70486
     5.07507      1.86037    -12.60964      1.45145    -12.59003
     5.08508      1.88647    -12.46491      1.45055    -12.48080
     5.09509      1.91920    -12.32597      1.44935    -12.37756
     5.10510      1.95888    -12.19421      1.44666    -12.28039
     5.11511      2.00560    -12.07136      1.44113    -12.18893
     5.12512      2.05902    -11.95955      1.43150    -12.10226
     5.13514      2.11815    -11.86122      1.41684    -12.01899
     5.14514      2.18107    -11.77898      1.39680    -11.93742
     5.15515      2.24473    -11.71522      1.37170    -11.85582
     5.16516      2.30481    -11.67162      1.34245    -11.77280
     5.17518      2.35589    -11.64846      1.31030    -11.68748
     5.18518      2.39204    -11.64392      1.27655    -11.59949
     5.19519      2.40783    -11.65379      1.24238    -11.50892
     5.20520      2.39955    -11.67175      1.20872    -11.41617
     5.21522      2.36612    -11.69026      1.17619    -11.32178
     5.22522      2.30943    -11.70200      1.14519    -11.22631
     5.23523      2.23379    -11.70120      1.11590    -11.13028
     5.24524      2.14487    -11.68435      1.08836    -11.03415
     5.25526      2.04850    -11.65034      1.06252    -10.93828
     5.26526      1.94980    -11.59993      1.03830    -10.84296
     5.27527      1.85268    -11.53508      1.01557    -10.74839
     5.28528      1.75982    -11.45832      0.99421    -10.65475
     5.29530      1.67279    -11.37226      0.97408    -10.56214
     5.30531      1.59235    -11.27927      0.95507    -10.47063
     5.31531      1.51866    -11.18141      0.93707    -10.38028
     5.32533      1.45151    -11.08032      0.91997    -10.29111
     5.33534      1.39048    -10.97733      0.90370    -10.20314
     5.34535      1.33507    -10.87344      0.88816    -10.11637
     5.35536      1.28471    -10.76939      0.87329    -10.03079
     5.36537      1.23889    -10.66573      0.85904     -9.94639
     5.37538      1.19709    -10.56288      0.84535     -9.86315
     5.38539      1.15886    -10.46111      0.83217     -9.78106
     5.39540      1.12378    -10.36061      0.81946     -9.70010
     5.40541      1.09149    -10.26151      0.80718     -9.62024
     5.41541      1.06168    -10.16389      0.79532     -9.54147
     5.42543      1.03407    -10.06779      0.78383     -9.46375
    5.435435     1.008421    -9.973229     0.772686    -9.387076
    5.445445     0.984514    -9.880199     0.761877    -9.311414
    5.455455     0.962172    -9.788696     0.751379    -9.236747
    5.465465     0.941234    -9.698677     0.741173    -9.163049
    5.475475     0.921564    -9.610116     0.731244    -9.090301
    5.485486     0.903041    -9.522984     0.721579    -9.018482
    5.495495     0.885561    -9.437235     0.712164    -8.947576
    5.505505     0.869031    -9.352823     0.702987    -8.877556
    5.515515     0.853372    -9.269721     0.694040    -8.808412
    5.525526     0.838514    -9.187876     0.685311    -8.740115
    5.535535     0.824397    -9.107257     0.676794    -8.672658
    5.545545     0.810966    -9.027816     0.668480    -8.606012
    5.555555     0.798175    -8.949511     0.660363    -8.540168
    5.565566     0.785983    -8.872307     0.652435    -8.475105
    5.575575     0.774355    -8.796172     0.644694    -8.410813
    5.585585     0.763258    -8.721064     0.637132    -8.347268
    5.595595     0.752667    -8.646946     0.629746    -8.284456
    5.605606     0.742559    -8.573788     0.622533    -8.222368
    5.615615     0.732916    -8.501553     0.615489    -8.160987
    5.625625     0.723720    -8.430205     0.608613    -8.100293
    5.635635     0.714959    -8.359721     0.601902    -8.040278
    5.645645     0.706625    -8.290066     0.595355    -7.980928
    5.655655     0.698710    -8.221208     0.588972    -7.922225
    5.665665     0.691210    -8.153116     0.582754    -7.864162
    5.675675     0.684125    -8.085764     0.576701    -7.806721
    5.685685     0.677458    -8.019127     0.570816    -7.749897
    5.695695     0.671215    -7.953168     0.565101    -7.693672
    5.705706     0.665405    -7.887862     0.559561    -7.638037
    5.715715     0.660041    -7.823190     0.554202    -7.582980
    5.725725     0.655140    -7.759124     0.549031    -7.528500
    5.735735     0.650726    -7.695633     0.544055    -7.474581
    5.745746     0.646824    -7.632697     0.539286    -7.421219
    5.755755     0.643468    -7.570299     0.534736    -7.368408
    5.765765     0.640699    -7.508417     0.530419    -7.316154
    5.775775     0.638564    -7.447032     0.526353    -7.264449
    5.785786     0.637119    -7.386136     0.522556    -7.213307
    5.795795     0.636430    -7.325719     0.519050    -7.162738
    5.805805     0.636575    -7.265788     0.515858    -7.112764
    5.815815     0.637646    -7.206348     0.513001    -7.063415
    5.825826     0.639746    -7.147425     0.510500    -7.014731
    5.835836     0.642996    -7.089064     0.508370    -6.966775
    5.845845     0.647534    -7.031333     0.506614    -6.919624
    5.855855     0.653513    -6.974331     0.505215    -6.873366
    5.865866     0.661102    -6.918200     0.504126    -6.828109
    5.875876     0.670480    -6.863140     0.503259    -6.783969
    5.885885     0.681829    -6.809425     0.502471    -6.741055
    5.895895     0.695316    -6.757410     0.501563    -6.699432
    5.905906     0.711068    -6.707563     0.500285    -6.659110
    5.915915     0.729132    -6.660490     0.498363    -6.620005
    5.925926     0.749417    -6.616902     0.495549    -6.581909
    5.935935     0.771619    -6.577644     0.491670    -6.544533
    5.945946     0.795129    -6.543616     0.486679    -6.507522
    5.955956     0.818951    -6.515670     0.480663    -6.470537
    5.965966     0.841656    -6.494428     0.473821    -6.433311
    5.975976     0.861424    -6.480062     0.466413    -6.395676
    5.985986     0.876229    -6.472058     0.458706    -6.357582
    5.995996     0.884165    -6.469074     0.450934    -6.319058
    6.006006     0.883867    -6.469015     0.443276    -6.280191
    6.016016     0.874848    -6.469322     0.435853    -6.241094
    6.026026     0.857642    -6.467462     0.428738    -6.201883
    6.036036     0.833651    -6.461367     0.421965    -6.162663
    6.046046     0.804790    -6.449738     0.415538    -6.123523
    6.056056     0.773079    -6.432106     0.409449    -6.084538
    6.066066     0.740317    -6.408671     0.403678    -6.045762
    6.076076     0.707909    -6.380079     0.398200    -6.007240
    6.086086     0.676823    -6.347187     0.392990    -5.968999
    6.096096     0.647645    -6.310899     0.388022    -5.931064
    6.106106     0.620665    -6.272050     0.383273    -5.893448
    6.116116     0.595960    -6.231361     0.378722    -5.856164
    6.126126     0.573472    -6.189424     0.374349    -5.819213
    6.136136     0.553068    -6.146704     0.370137    -5.782601
    6.146146     0.534575    -6.103567     0.366071    -5.746326
    6.156156     0.517808    -6.060279     0.362137    -5.710389
    6.166166     0.502583    -6.017042     0.358325    -5.674784
    6.176176     0.488725    -5.974002     0.354624    -5.639513
    6.186186     0.476080    -5.931264     0.351024    -5.604568
    6.196196     0.464503    -5.888897     0.347520    -5.569945
    6.206206     0.453871    -5.846957     0.344102    -5.535642
    6.216216     0.444074    -5.805473     0.340767    -5.501652
    6.226226     0.435017    -5.764459     0.337508    -5.467974
    6.236236     0.426615    -5.723926     0.334321    -5.434599
    6.246246     0.418798    -5.683878     0.331201    -5.401523
    6.256256     0.411502    -5.644314     0.328146    -5.368743
    6.266266     0.404674    -5.605223     0.325151    -5.336256
    6.276276     0.398265    -5.566597     0.322215    -5.304053
    6.286286     0.392237    -5.528425     0.319334    -5.272132
    6.296296     0.386552    -5.490700     0.316506    -5.240489
    6.306306     0.381181    -5.453408     0.313730    -5.209121
    6.316316     0.376097    -5.416533     0.311003    -5.178020
    6.326326     0.371276    -5.380064     0.308324    -5.147185
    6.336336     0.366698    -5.343990     0.305691    -5.116611
    6.346346     0.362346    -5.308299     0.303103    -5.086293
    6.356356     0.358204    -5.272977     0.300560    -5.056230
    6.366366     0.354261    -5.238011     0.298059    -5.026415
    6.376376     0.350503    -5.203389     0.295601    -4.996846
    6.386386     0.346923    -5.169103     0.293184    -4.967520
    6.396396     0.343511    -5.135139     0.290809    -4.938431
    6.406406     0.340262    -5.101485     0.288474    -4.909578
    6.416416     0.337170    -5.068131     0.286180    -4.880956
    6.426426     0.334231    -5.035067     0.283926    -4.852561
    6.436436     0.331443    -5.002281     0.281712    -4.824393
    6.446446     0.328803    -4.969763     0.279539    -4.796444
    6.456456     0.326312    -4.937506     0.277408    -4.768715
    6.466466     0.323969    -4.905497     0.275317    -4.741200
    6.476476     0.321777    -4.873724     0.273270    -4.713898
    6.486486     0.319739    -4.842182     0.271266    -4.686805
    6.496496     0.317861    -4.810861     0.269307    -4.659917
    6.506506     0.316147    -4.779747     0.267395    -4.633233
    6.516516     0.314605    -4.748832     0.265532    -4.606750
    6.526526     0.313246    -4.718110     0.263720    -4.580467
    6.536536     0.312080    -4.687574     0.261963    -4.554381
    6.546546     0.311123    -4.657210     0.260264    -4.528490
    6.556556     0.310389    -4.627013     0.258627    -4.502793
    6.566566     0.309899    -4.596975     0.257058    -4.477292
    6.576576     0.309676    -4.567093     0.255561    -4.451986
    6.586586     0.309747    -4.537363     0.254143    -4.426878
    6.596596     0.310143    -4.507780     0.252811    -4.401974
    6.606606     0.310901    -4.478345     0.251573    -4.377278
    6.616616     0.312063    -4.449073     0.250435    -4.352802
    6.626626     0.313679    -4.419965     0.249405    -4.328558
    6.636636     0.315805    -4.391046     0.248489    -4.304564
    6.646646     0.318506    -4.362344     0.247688    -4.280846
    6.656656     0.321854    -4.333904     0.246998    -4.257432
    6.666667     0.325929    -4.305787     0.246407    -4.234353
    6.676676     0.330818    -4.278084     0.245890    -4.211650
    6.686686     0.336610    -4.250908     0.245403    -4.189357
    6.696696     0.343392    -4.224421     0.244887    -4.167499
    6.706707     0.351236    -4.198828     0.244264    -4.146084
    6.716716     0.360185    -4.174401     0.243447    -4.125089
    6.726726     0.370225    -4.151462     0.242354    -4.104458
    6.736736     0.381259    -4.130405     0.240925    -4.084100
    6.746747     0.393054    -4.111659     0.239137    -4.063905
    6.756756     0.405209    -4.095659     0.237011    -4.043763
    6.766766     0.417114    -4.082773     0.234604    -4.023582
    6.776776     0.427955    -4.073184     0.231999    -4.003304
    6.786787     0.436770    -4.066798     0.229282    -3.982905
    6.796797     0.442586    -4.063125     0.226529    -3.962392
    6.806807     0.444604    -4.061288     0.223803    -3.941791
    6.816816     0.442397    -4.060109     0.221144    -3.921138
    6.826826     0.436025    -4.058319     0.218580    -3.900469
    6.836837     0.426012    -4.054800     0.216121    -3.879817
    6.846847     0.413216    -4.048751     0.213773    -3.859215
    6.856857     0.398621    -4.039786     0.211532    -3.838686
    6.866867     0.383166    -4.027882     0.209393    -3.818250
    6.876876     0.367617    -4.013285     0.207348    -3.797920
    6.886887     0.352531    -3.996374     0.205389    -3.777705
    6.896896     0.338270    -3.977598     0.203508    -3.757618
    6.906906     0.325026    -3.957379     0.201697    -3.737660
    6.916917     0.312874    -3.936092     0.199950    -3.717834
    6.926927     0.301811    -3.914058     0.198261    -3.698144
    6.936936     0.291784    -3.891526     0.196623    -3.678592
    6.946947     0.282714    -3.868688     0.195032    -3.659173
    6.956956     0.274514    -3.845699     0.193484    -3.639894
    6.966967     0.267093    -3.822671     0.191975    -3.620748
    6.976976     0.260364    -3.799684     0.190502    -3.601738
    6.986986     0.254249    -3.776802     0.189061    -3.582862
    6.996997     0.248674    -3.754056     0.187651    -3.564117
    7.007007     0.243576    -3.731485     0.186269    -3.545504
    7.017016     0.238900    -3.709106     0.184914    -3.527020
    7.027027     0.234594    -3.686928     0.183583    -3.508662
    7.037036     0.230619    -3.664961     0.182276    -3.490433
    7.047047     0.226935    -3.643206     0.180990    -3.472328
    7.057057     0.223512    -3.621665     0.179726    -3.454345
    7.067067     0.220321    -3.600334     0.178481    -3.436486
    7.077077     0.217338    -3.579209     0.177255    -3.418746
    7.087087     0.214544    -3.558289     0.176048    -3.401126
    7.097096     0.211919    -3.537567     0.174858    -3.383623
    7.107107     0.209447    -3.517035     0.173685    -3.366235
    7.117116     0.207117    -3.496695     0.172528    -3.348963
    7.127127     0.204915    -3.476533     0.171388    -3.331804
    7.137137     0.202832    -3.456548     0.170263    -3.314758
    7.147147     0.200859    -3.436734     0.169153    -3.297822
    7.157157     0.198989    -3.417083     0.168058    -3.280994
    7.167167     0.197214    -3.397592     0.166977    -3.264277
    7.177176     0.195530    -3.378255     0.165911    -3.247665
    7.187187     0.193932    -3.359065     0.164860    -3.231158
    7.197196     0.192416    -3.340017     0.163822    -3.214756
    7.207206     0.190979    -3.321107     0.162799    -3.198459
    7.217217     0.189619    -3.302329     0.161790    -3.182261
    7.227227     0.188334    -3.283678     0.160795    -3.166165
    7.237237     0.187123    -3.265147     0.159814    -3.150168
    7.247247     0.185985    -3.246737     0.158848    -3.134270
    7.257257     0.184920    -3.228439     0.157897    -3.118471
    7.267267     0.183930    -3.210246     0.156960    -3.102766
    7.277277     0.183016    -3.192157     0.156039    -3.087156
    7.287287     0.182179    -3.174169     0.155134    -3.071641
    7.297297     0.181422    -3.156269     0.154245    -3.056219
    7.307307     0.180750    -3.138461     0.153374    -3.040890
    7.317317     0.180167    -3.120737     0.152521    -3.025650
    7.327327     0.179678    -3.103092     0.151687    -3.010502
    7.337337     0.179289    -3.085524     0.150874    -2.995443
    7.347347     0.179010    -3.068023     0.150083    -2.980474
    7.357357     0.178848    -3.050594     0.149315    -2.965594
    7.367367     0.178815    -3.033227     0.148573    -2.950803
    7.377377     0.178923    -3.015921     0.147859    -2.936100
    7.387387     0.179188    -2.998673     0.147176    -2.921490
    7.397398     0.179627    -2.981483     0.146526    -2.906969
    7.407407     0.180260    -2.964352     0.145912    -2.892545
    7.417417     0.181111    -2.947283     0.145338    -2.878219
    7.427427     0.182206    -2.930279     0.144807    -2.863996
    7.437437     0.183577    -2.913355     0.144320    -2.849884
    7.447447     0.185260    -2.896521     0.143880    -2.835891
    7.457457     0.187295    -2.879797     0.143486    -2.822028
    7.467467     0.189727    -2.863221     0.143134    -2.808312
    7.477477     0.192606    -2.846832     0.142814    -2.794755
    7.487487     0.195983    -2.830692     0.142513    -2.781372
    7.497497     0.199911    -2.814883     0.142207    -2.768178
    7.507507     0.204439    -2.799509     0.141865    -2.755174
    7.517517     0.209600    -2.784714     0.141455    -2.742360
    7.527527     0.215408    -2.770669     0.140939    -2.729714
    7.537538     0.221833    -2.757585     0.140289    -2.717202
    7.547547     0.228781    -2.745710     0.139492    -2.704782
    7.557557     0.236071    -2.735301     0.138551    -2.692408
    7.567567     0.243408    -2.726601     0.137485    -2.680037
    7.577577     0.250372    -2.719781     0.136327    -2.667643
    7.587587     0.256436    -2.714879     0.135111    -2.655210
    7.597597     0.261018    -2.711730     0.133872    -2.642741
    7.607607     0.263581    -2.709932     0.132637    -2.630243
    7.617618     0.263750    -2.708871     0.131424    -2.617727
    7.627627     0.261411    -2.707810     0.130248    -2.605213
    7.637637     0.256740    -2.706029     0.129113    -2.592713
    7.647647     0.250154    -2.702955     0.128024    -2.580240
    7.657657     0.242210    -2.698236     0.126979    -2.567806
    7.667668     0.233483    -2.691755     0.125976    -2.555418
    7.677677     0.224483    -2.683584     0.125013    -2.543085
    7.687687     0.215602    -2.673918     0.124086    -2.530810
    7.697698     0.207107    -2.663001     0.123192    -2.518595
    7.707707     0.199160    -2.651097     0.122328    -2.506445
    7.717717     0.191837    -2.638444     0.121490    -2.494360
    7.727727     0.185157    -2.625242     0.120677    -2.482342
    7.737737     0.179102    -2.611663     0.119885    -2.470392
    7.747747     0.173632    -2.597838     0.119113    -2.458509
    7.757758     0.168697    -2.583865     0.118359    -2.446692
    7.767767     0.164245    -2.569826     0.117621    -2.434945
    7.777778     0.160223    -2.555773     0.116899    -2.423263
    7.787787     0.156582    -2.541753     0.116190    -2.411647
    7.797797     0.153278    -2.527791     0.115494    -2.400098
    7.807807     0.150271    -2.513908     0.114810    -2.388614
    7.817817     0.147525    -2.500122     0.114136    -2.377194
    7.827827     0.145011    -2.486438     0.113473    -2.365840
    7.837838     0.142699    -2.472864     0.112820    -2.354547
    7.847847     0.140569    -2.459403     0.112176    -2.343318
    7.857858     0.138599    -2.446055     0.111541    -2.332151
    7.867867     0.136771    -2.432820     0.110914    -2.321046
    7.877877     0.135072    -2.419697     0.110296    -2.310003
    7.887888     0.133487    -2.406683     0.109684    -2.299018
    7.897897     0.132005    -2.393778     0.109081    -2.288095
    7.907907     0.130617    -2.380975     0.108484    -2.277229
    7.917918     0.129315    -2.368274     0.107894    -2.266423
    7.927927     0.128090    -2.355673     0.107312    -2.255675
    7.937938     0.126936    -2.343164     0.106735    -2.244985
    7.947948     0.125849    -2.330747     0.106165    -2.234351
    7.957957     0.124823    -2.318420     0.105602    -2.223773
    7.967968     0.123854    -2.306176     0.105045    -2.213252
    7.977978     0.122939    -2.294015     0.104493    -2.202786
    7.987987     0.122076    -2.281933     0.103949    -2.192375
    7.997998     0.121261    -2.269927     0.103410    -2.182017
    8.008007     0.120494    -2.257993     0.102877    -2.171713
    8.018017     0.119772    -2.246130     0.102351    -2.161464
    8.028028     0.119094    -2.234332     0.101830    -2.151265
    8.038037     0.118461    -2.222599     0.101316    -2.141120
    8.048048     0.117870    -2.210926     0.100808    -2.131026
    8.058058     0.117324    -2.199313     0.100307    -2.120984
     8.06807      0.11682     -2.18775      0.09981     -2.11099
     8.07808      0.11636     -2.17625      0.09932     -2.10105
     8.08809      0.11595     -2.16479      0.09884     -2.09116
     8.09810      0.11559     -2.15339      0.09837     -2.08132
     8.10811      0.11528     -2.14202      0.09790     -2.07152
     8.11812      0.11502     -2.13070      0.09745     -2.06178
     8.12813      0.11482     -2.11941      0.09700     -2.05208
     8.13814      0.11468     -2.10817      0.09656     -2.04243
     8.14815      0.11460     -2.09695      0.09613     -2.03283
     8.15816      0.11459     -2.08577      0.09571     -2.02327
     8.16817      0.11467     -2.07462      0.09530     -2.01377
     8.17818      0.11483     -2.06349      0.09491     -2.00431
     8.18819      0.11508     -2.05239      0.09453     -1.99489
     8.19820      0.11544     -2.04132      0.09416     -1.98553
     8.20821      0.11591     -2.03027      0.09381     -1.97622
     8.21822      0.11652     -2.01925      0.09348     -1.96696
     8.22823      0.11728     -2.00825      0.09317     -1.95775
     8.23824      0.11821     -1.99729      0.09288     -1.94860
     8.24825      0.11932     -1.98637      0.09262     -1.93951
     8.25826      0.12065     -1.97551      0.09237     -1.93049
     8.26827      0.12222     -1.96471      0.09215     -1.92153
     8.27828      0.12407     -1.95402      0.09194     -1.91266
     8.28829      0.12622     -1.94345      0.09175     -1.90387
     8.29830      0.12872     -1.93305      0.09155     -1.89518
     8.30831      0.13159     -1.92289      0.09135     -1.88659
     8.31832      0.13487     -1.91305      0.09111     -1.87809
     8.32833      0.13857     -1.90362      0.09084     -1.86968
     8.33834      0.14269     -1.89473      0.09050     -1.86135
     8.34835      0.14720     -1.88654      0.09009     -1.85308
     8.35836      0.15200     -1.87920      0.08961     -1.84484
     8.36837      0.15696     -1.87290      0.08907     -1.83662
     8.37838      0.16184     -1.86777      0.08847     -1.82839
     8.38839      0.16633     -1.86390      0.08784     -1.82015
     8.39840      0.17006     -1.86126      0.08720     -1.81190
     8.40841      0.17265     -1.85967      0.08655     -1.80364
     8.41842      0.17378     -1.85881      0.08590     -1.79537
     8.42843      0.17327     -1.85822      0.08528     -1.78710
     8.43844      0.17113     -1.85742      0.08467     -1.77885
     8.44845      0.16755     -1.85594      0.08409     -1.77061
     8.45846      0.16285     -1.85349      0.08352     -1.76239
     8.46847      0.15743     -1.84989      0.08298     -1.75419
     8.47848      0.15163     -1.84513      0.08245     -1.74603
     8.48849      0.14577     -1.83929      0.08195     -1.73790
     8.49850      0.14008     -1.83252      0.08146     -1.72981
     8.50851      0.13469     -1.82499      0.08099     -1.72175
     8.51852      0.12970     -1.81687      0.08052     -1.71372
     8.52853      0.12512     -1.80831      0.08008     -1.70574
     8.53854      0.12096     -1.79943      0.07964     -1.69779
     8.54855      0.11721     -1.79033      0.07921     -1.68988
     8.55856      0.11383     -1.78109      0.07879     -1.68200
     8.56857      0.11078     -1.77178      0.07838     -1.67417
     8.57858      0.10804     -1.76242      0.07798     -1.66637
     8.58859      0.10556     -1.75307      0.07758     -1.65861
     8.59860      0.10333     -1.74374      0.07719     -1.65089
     8.60861      0.10130     -1.73444      0.07680     -1.64320
     8.61862      0.09946     -1.72520      0.07643     -1.63555
     8.62863      0.09778     -1.71602      0.07605     -1.62794
     8.63864      0.09625     -1.70690      0.07568     -1.62036
     8.64865      0.09484     -1.69784      0.07532     -1.61282
     8.65866      0.09355     -1.68886      0.07496     -1.60531
     8.66867      0.09235     -1.67994      0.07460     -1.59784
     8.67868      0.09125     -1.67109      0.07425     -1.59041
     8.68869      0.09022     -1.66231      0.07390     -1.58300
     8.69870      0.08927     -1.65359      0.07356     -1.57564
     8.70871      0.08838     -1.64494      0.07321     -1.56830
     8.71872      0.08755     -1.63635      0.07288     -1.56100
     8.72873      0.08678     -1.62782      0.07254     -1.55374
     8.73874      0.08605     -1.61934      0.07221     -1.54650
     8.74875      0.08537     -1.61092      0.07188     -1.53930
     8.75876      0.08473     -1.60256      0.07156     -1.53213
     8.76877      0.08412     -1.59425      0.07123     -1.52500
     8.77878      0.08356     -1.58599      0.07092     -1.51789
     8.78879      0.08303     -1.57777      0.07060     -1.51082
     8.79880      0.08253     -1.56960      0.07029     -1.50378
     8.80881      0.08207     -1.56148      0.06998     -1.49677
     8.81882      0.08163     -1.55339      0.06967     -1.48979
     8.82883      0.08123     -1.54535      0.06937     -1.48284
     8.83884      0.08085     -1.53734      0.06907     -1.47593
     8.84885      0.08051     -1.52937      0.06877     -1.46904
     8.85886      0.08019     -1.52143      0.06848     -1.46218
     8.86887      0.07990     -1.51352      0.06819     -1.45535
     8.87888      0.07964     -1.50565      0.06790     -1.44855
     8.88889      0.07942     -1.49780      0.06762     -1.44178
     8.89890      0.07922     -1.48998      0.06734     -1.43504
     8.90891      0.07906     -1.48219      0.06706     -1.42833
     8.91892      0.07893     -1.47441      0.06679     -1.42165
     8.92893      0.07884     -1.46666      0.06652     -1.41500
     8.93894      0.07880     -1.45893      0.06626     -1.40837
     8.94895      0.07879     -1.45122      0.06600     -1.40177
     8.95896      0.07883     -1.44352      0.06575     -1.39520
     8.96897      0.07893     -1.43583      0.06550     -1.38866
     8.97898      0.07908     -1.42816      0.06526     -1.38215
     8.98899      0.07929     -1.42051      0.06503     -1.37566
     8.99900      0.07957     -1.41286      0.06481     -1.36920
     9.00901      0.07993     -1.40522      0.06459     -1.36277
     9.01902      0.08038     -1.39760      0.06438     -1.35638
     9.02903      0.08093     -1.38998      0.06419     -1.35001
     9.03904      0.08159     -1.38239      0.06400     -1.34367
     9.04905      0.08237     -1.37481      0.06383     -1.33737
     9.05906      0.08330     -1.36726      0.06367     -1.33111
     9.06907      0.08438     -1.35975      0.06352     -1.32489
     9.07908      0.08565     -1.35228      0.06338     -1.31871
     9.08909      0.08712     -1.34489      0.06325     -1.31258
     9.09910      0.08883     -1.33760      0.06312     -1.30650
     9.10911      0.09078     -1.33044      0.06299     -1.30047
     9.11912      0.09302     -1.32347      0.06284     -1.29451
     9.12913      0.09555     -1.31675      0.06268     -1.28859
     9.13914      0.09839     -1.31035      0.06248     -1.28272
     9.14915      0.10151     -1.30439      0.06225     -1.27689
     9.15916      0.10490     -1.29896      0.06198     -1.27109
     9.16917      0.10845     -1.29419      0.06167     -1.26530
     9.17918      0.11206     -1.29021      0.06133     -1.25951
     9.18919      0.11551     -1.28709      0.06097     -1.25372
     9.19920      0.11858     -1.28487      0.06060     -1.24793
     9.20921      0.12098     -1.28348      0.06022     -1.24213
     9.21922      0.12246     -1.28276      0.05985     -1.23633
     9.22923      0.12283     -1.28242      0.05948     -1.23053
     9.23924      0.12201     -1.28212      0.05912     -1.22474
     9.24925      0.12007     -1.28151      0.05877     -1.21896
     9.25926      0.11718     -1.28031      0.05844     -1.21319
     9.26927      0.11361     -1.27835      0.05811     -1.20744
     9.27928      0.10963     -1.27554      0.05780     -1.20170
     9.28929      0.10549     -1.27191      0.05750     -1.19599
     9.29930      0.10138     -1.26755      0.05720     -1.19030
     9.30931      0.09744     -1.26257      0.05692     -1.18463
     9.31932      0.09375     -1.25709      0.05664     -1.17898
     9.32933      0.09034     -1.25124      0.05637     -1.17335
     9.33934      0.08724     -1.24510      0.05610     -1.16775
     9.34935      0.08444     -1.23877      0.05584     -1.16217
     9.35936      0.08191     -1.23230      0.05559     -1.15661
     9.36937      0.07964     -1.22575      0.05534     -1.15108
     9.37938      0.07760     -1.21915      0.05509     -1.14556
     9.38939      0.07577     -1.21253      0.05485     -1.14008
     9.39940      0.07412     -1.20591      0.05461     -1.13461
     9.40941      0.07262     -1.19931      0.05437     -1.12917
     9.41942      0.07128     -1.19274      0.05414     -1.12375
     9.42943      0.07005     -1.18620      0.05391     -1.11835
     9.43944      0.06894     -1.17971      0.05368     -1.11297
     9.44945      0.06792     -1.17325      0.05346     -1.10762
     9.45946      0.06699     -1.16684      0.05324     -1.10229
     9.46947      0.06613     -1.16048      0.05302     -1.09698
     9.47948      0.06535     -1.15416      0.05280     -1.09169
     9.48949      0.06462     -1.14789      0.05258     -1.08642
     9.49950      0.06395     -1.14165      0.05237     -1.08118
     9.50951      0.06332     -1.13546      0.05216     -1.07595
     9.51952      0.06274     -1.12932      0.05195     -1.07075
     9.52953      0.06220     -1.12321      0.05174     -1.06556
     9.53954      0.06170     -1.11714      0.05153     -1.06040
     9.54955      0.06123     -1.11111      0.05133     -1.05526
     9.55956      0.06080     -1.10511      0.05113     -1.05014
     9.56957      0.06039     -1.09915      0.05092     -1.04503
     9.57958      0.06001     -1.09322      0.05073     -1.03995
     9.58959      0.05965     -1.08732      0.05053     -1.03489
     9.59960      0.05932     -1.08146      0.05033     -1.02985
     9.60961      0.05901     -1.07561      0.05014     -1.02483
     9.61962      0.05872     -1.06980      0.04994     -1.01982
     9.62963      0.05846     -1.06401      0.04975     -1.01484
     9.63964      0.05821     -1.05825      0.04956     -1.00987
     9.64965      0.05799     -1.05251      0.04938     -1.00493
     9.65966      0.05779     -1.04679      0.04919     -1.00000
     9.66967      0.05761     -1.04109      0.04901     -0.99509
     9.67968      0.05745     -1.03541      0.04883     -0.99020
     9.68969      0.05732     -1.02975      0.04865     -0.98533
     9.69970      0.05720     -1.02410      0.04847     -0.98048
     9.70971      0.05711     -1.01847      0.04829     -0.97565
     9.71972      0.05705     -1.01286      0.04812     -0.97083
     9.72973      0.05701     -1.00725      0.04795     -0.96603
     9.73974      0.05700     -1.00166      0.04778     -0.96125
     9.74975      0.05702     -0.99607      0.04762     -0.95649
     9.75976      0.05708     -0.99050      0.04745     -0.95174
     9.76977      0.05717     -0.98493      0.04729     -0.94702
     9.77978      0.05730     -0.97936      0.04714     -0.94231
     9.78979      0.05748     -0.97381      0.04699     -0.93762
     9.79980      0.05771     -0.96826      0.04684     -0.93294
     9.80981      0.05799     -0.96271      0.04670     -0.92829
     9.81982      0.05833     -0.95716      0.04656     -0.92365
     9.82983      0.05875     -0.95162      0.04643     -0.91903
     9.83984      0.05924     -0.94609      0.04631     -0.91444
     9.84985      0.05982     -0.94057      0.04619     -0.90986
     9.85986      0.06049     -0.93506      0.04608     -0.90531
     9.86987      0.06129     -0.92957      0.04597     -0.90078
     9.87988      0.06221     -0.92411      0.04588     -0.89628
     9.88989      0.06328     -0.91869      0.04578     -0.89180
     9.89990      0.06451     -0.91333      0.04569     -0.88736
     9.90991      0.06592     -0.90805      0.04560     -0.88295
     9.91992      0.06754     -0.90289      0.04551     -0.87858
     9.92993      0.06937     -0.89789      0.04540     -0.87424
     9.93994      0.07143     -0.89309      0.04528     -0.86993
     9.94995      0.07372     -0.88858      0.04514     -0.86564
     9.95996      0.07622     -0.88442      0.04497     -0.86138
     9.96997      0.07888     -0.88071      0.04478     -0.85712
     9.97998      0.08165     -0.87754      0.04457     -0.85287
     9.98999      0.08438     -0.87500      0.04435     -0.84862
    10.00000      0.08693     -0.87312      0.04412     -0.84437
# 
# 11/06/2019 at 10:28 YAMBO @ dufour [start]
# 11/06/2019 at 10:28                [end]
#  
# Timing   [Min/Max/Average]: 01s/01s/01s
#
# .-Input file : References/01_alda_01_alda.in
# | optics                         # [R OPT] Optics
# | bse                            # [R BSE] Bethe Salpeter Equation.
# | bsk                            # [R BSK] Bethe Salpeter Equation kernel
# | bss                            # [R BSS] Bethe Salpeter Equation solver
# | tddft                          # [R   K] Use TDDFT kernel
# | BoseTemp= 0.000000     eV      # Bosonic Temperature
# | X_Threads=0                    # [OPENMP/X] Number of threads for response functions
# | DIP_Threads=0                  # [OPENMP/X] Number of threads for dipoles
# | K_Threads= 1                   # [OPENMP/BSK] Number of threads for response functions
# | BSEmod= "retarded"             # [BSE] resonant/retarded/coupling
# | BSKmod= "ALDA"                 # [BSE] IP/Hartree/HF/ALDA/SEX
# | BSSmod= "d"                    # [BSS] (h)aydock/(d)iagonalization/(i)nversion/(t)ddft`
# | BSENGexx=  7659        RL      # [BSK] Exchange components
# | % KfnQP_E
# |  3.500000 | 1.000000 | 1.000000 |        # [EXTQP BSK BSS] E parameters  (c/v) eV|adim|adim
# | %
# | % BEnRange
# |   0.00000 | 10.00000 | eV      # [BSS] Energy range
# | %
# | % BDmRange
# |   0.10000 |  0.10000 | eV      # [BSS] Damping range
# | %
# | BEnSteps= 1000                 # [BSS] Energy steps
# | % BLongDir
# | 0.1000E-4 | 0.000    | 0.000    |        # [BSS] [cc] Electric Field
# | %
# | % BSEBands
# |  1 | 2 |                       # [BSK] Bands range
# | %
# | WRbsWF                         # [BSS] Write to disk excitonic the WFs
