#                                                           
# :::   :::   :::     ::::    ::::  :::::::::   ::::::::    
# :+:   :+: :+: :+:   +:+:+: :+:+:+ :+:    :+: :+:    :+:   
#  +:+ +:+ +:+   +:+  +:+ +:+:+ +:+ +:+    +:+ +:+    +:+   
#   +#++: +#++:++#++: +#+  +:+  +#+ +#++:++#+  +#+    +:+   
#    +#+  +#+     +#+ +#+       +#+ +#+    +#+ +#+    +#+   
#    #+#  #+#     #+# #+#       #+# #+#    #+# #+#    #+#   
#    ###  ###     ### ###       ### #########   ########    
#                                                           
#             GPL Version 3.1.2 Revision 297                
#                http://www.yambo-code.org                  
#
# Absorption @ IQ 1 [q->0 dir]: 1.000000  0.000000  0.000000
#
# - Energies      are Perdew & Wang (xc)
# - Wavefunctions are Perdew & Wang (xc)
# - The Green`s function is T-ordered -
# - The gauge is transverse + [r,Vnl] -
#
#  E/ev[1]    e/Im[2]    e/Re[3]    eo/Im[4]   eo/Re[5]
#
  0.000     0.2056E-3   1.017     0.2056E-3   1.017   
 0.7538E-1  0.2056E-3   1.017     0.2056E-3   1.017   
 0.1508     0.2058E-3   1.017     0.2058E-3   1.017   
 0.2261     0.2061E-3   1.017     0.2061E-3   1.017   
 0.3015     0.2064E-3   1.017     0.2064E-3   1.017   
 0.3769     0.2069E-3   1.017     0.2069E-3   1.017   
 0.4523     0.2075E-3   1.017     0.2075E-3   1.017   
 0.5276     0.2082E-3   1.017     0.2082E-3   1.017   
 0.6030     0.2090E-3   1.017     0.2090E-3   1.017   
 0.6784     0.2100E-3   1.017     0.2100E-3   1.017   
 0.7538     0.2110E-3   1.017     0.2110E-3   1.017   
 0.8291     0.2122E-3   1.017     0.2122E-3   1.017   
 0.9045     0.2135E-3   1.017     0.2135E-3   1.017   
 0.9799     0.2149E-3   1.017     0.2149E-3   1.017   
  1.055     0.2164E-3   1.017     0.2164E-3   1.017   
  1.131     0.2180E-3   1.017     0.2180E-3   1.017   
  1.206     0.2198E-3   1.017     0.2198E-3   1.017   
  1.281     0.2217E-3   1.017     0.2217E-3   1.017   
  1.357     0.2238E-3   1.017     0.2238E-3   1.017   
  1.432     0.2260E-3   1.017     0.2260E-3   1.017   
  1.508     0.2283E-3   1.017     0.2283E-3   1.017   
  1.583     0.2308E-3   1.017     0.2308E-3   1.017   
  1.658     0.2335E-3   1.017     0.2335E-3   1.017   
  1.734     0.2363E-3   1.018     0.2363E-3   1.018   
  1.809     0.2392E-3   1.018     0.2392E-3   1.018   
  1.884     0.2424E-3   1.018     0.2424E-3   1.018   
  1.960     0.2457E-3   1.018     0.2457E-3   1.018   
  2.035     0.2492E-3   1.018     0.2492E-3   1.018   
  2.111     0.2529E-3   1.018     0.2529E-3   1.018   
  2.186     0.2568E-3   1.018     0.2568E-3   1.018   
  2.261     0.2609E-3   1.018     0.2609E-3   1.018   
  2.337     0.2653E-3   1.018     0.2653E-3   1.018   
  2.412     0.2698E-3   1.018     0.2698E-3   1.018   
  2.487     0.2746E-3   1.018     0.2746E-3   1.018   
  2.563     0.2797E-3   1.019     0.2797E-3   1.019   
  2.638     0.2850E-3   1.019     0.2850E-3   1.019   
  2.714     0.2906E-3   1.019     0.2906E-3   1.019   
  2.789     0.2965E-3   1.019     0.2965E-3   1.019   
  2.864     0.3027E-3   1.019     0.3027E-3   1.019   
  2.940     0.3093E-3   1.019     0.3093E-3   1.019   
  3.015     0.3162E-3   1.019     0.3162E-3   1.019   
  3.090     0.3234E-3   1.020     0.3234E-3   1.020   
  3.166     0.3310E-3   1.020     0.3310E-3   1.020   
  3.241     0.3391E-3   1.020     0.3391E-3   1.020   
  3.317     0.3476E-3   1.020     0.3476E-3   1.020   
  3.392     0.3565E-3   1.020     0.3565E-3   1.020   
  3.467     0.3659E-3   1.020     0.3659E-3   1.020   
  3.543     0.3759E-3   1.021     0.3759E-3   1.021   
  3.618     0.3864E-3   1.021     0.3864E-3   1.021   
  3.693     0.3975E-3   1.021     0.3975E-3   1.021   
  3.769     0.4093E-3   1.021     0.4093E-3   1.021   
  3.844     0.4217E-3   1.022     0.4217E-3   1.022   
  3.920     0.4349E-3   1.022     0.4349E-3   1.022   
  3.995     0.4489E-3   1.022     0.4489E-3   1.022   
  4.070     0.4637E-3   1.022     0.4637E-3   1.022   
  4.146     0.4794E-3   1.023     0.4794E-3   1.023   
  4.221     0.4961E-3   1.023     0.4961E-3   1.023   
  4.296     0.5138E-3   1.023     0.5138E-3   1.023   
  4.372     0.5327E-3   1.024     0.5327E-3   1.024   
  4.447     0.5529E-3   1.024     0.5529E-3   1.024   
  4.523     0.5744E-3   1.024     0.5744E-3   1.024   
  4.598     0.5974E-3   1.025     0.5974E-3   1.025   
  4.673     0.6220E-3   1.025     0.6220E-3   1.025   
  4.749     0.6483E-3   1.025     0.6483E-3   1.025   
  4.824     0.6766E-3   1.026     0.6766E-3   1.026   
  4.899     0.7070E-3   1.026     0.7070E-3   1.026   
  4.975     0.7396E-3   1.027     0.7396E-3   1.027   
  5.050     0.7749E-3   1.027     0.7749E-3   1.027   
  5.126     0.8129E-3   1.028     0.8129E-3   1.028   
  5.201     0.8541E-3   1.028     0.8541E-3   1.028   
  5.276     0.8988E-3   1.029     0.8988E-3   1.029   
  5.352     0.9473E-3   1.030     0.9473E-3   1.030   
  5.427     0.1000E-2   1.030     0.1000E-2   1.030   
  5.503     0.1058E-2   1.031     0.1058E-2   1.031   
  5.578     0.1121E-2   1.032     0.1121E-2   1.032   
  5.653     0.1190E-2   1.033     0.1190E-2   1.033   
  5.729     0.1266E-2   1.034     0.1266E-2   1.034   
  5.804     0.1351E-2   1.034     0.1351E-2   1.034   
  5.879     0.1444E-2   1.035     0.1444E-2   1.035   
  5.955     0.1548E-2   1.037     0.1548E-2   1.037   
  6.030     0.1663E-2   1.038     0.1663E-2   1.038   
  6.106     0.1793E-2   1.039     0.1793E-2   1.039   
  6.181     0.1939E-2   1.040     0.1939E-2   1.040   
  6.256     0.2104E-2   1.042     0.2104E-2   1.042   
  6.332     0.2291E-2   1.043     0.2291E-2   1.043   
  6.407     0.2506E-2   1.045     0.2506E-2   1.045   
  6.482     0.2752E-2   1.047     0.2752E-2   1.047   
  6.558     0.3038E-2   1.049     0.3038E-2   1.049   
  6.633     0.3371E-2   1.051     0.3371E-2   1.051   
  6.709     0.3764E-2   1.054     0.3764E-2   1.054   
  6.784     0.4230E-2   1.057     0.4230E-2   1.057   
  6.859     0.4789E-2   1.060     0.4789E-2   1.060   
  6.935     0.5469E-2   1.064     0.5469E-2   1.064   
  7.010     0.6305E-2   1.068     0.6305E-2   1.068   
    7.0854     0.0074     1.0733     0.0074     1.0733
    7.1608     0.0087     1.0791     0.0087     1.0791
   7.23618    0.01041    1.08605    0.01041    1.08605
   7.31156    0.01270    1.09437    0.01270    1.09437
   7.38694    0.01585    1.10454    0.01585    1.10454
   7.46231    0.02033    1.11727    0.02033    1.11727
   7.53769    0.02698    1.13358    0.02698    1.13358
   7.61307    0.03744    1.15508    0.03744    1.15508
   7.68844    0.05517    1.18435    0.05517    1.18435
   7.76382    0.08831    1.22516    0.08831    1.22516
  7.839197   0.158460   1.280107   0.158460   1.280107
  7.914573   0.323838   1.322339   0.323838   1.322339
  7.989950   0.602825   1.140630   0.602825   1.140630
  8.065327   0.493882   0.744156   0.493882   0.744156
  8.140703   0.238941   0.699440   0.238941   0.699440
  8.216081   0.122896   0.755990   0.122896   0.755990
   8.29146    0.07208    0.80540    0.07208    0.80540
   8.36683    0.04676    0.84102    0.04676    0.84102
   8.44221    0.03262    0.86678    0.03262    0.86678
   8.51759    0.02400    0.88598    0.02400    0.88598
   8.59297    0.01839    0.90073    0.01839    0.90073
   8.66834    0.01455    0.91240    0.01455    0.91240
   8.74372    0.01181    0.92185    0.01181    0.92185
    8.8191     0.0098     0.9296     0.0098     0.9296
  8.894     0.8276E-2  0.9362     0.8276E-2  0.9362   
  8.970     0.7107E-2  0.9418     0.7107E-2  0.9418   
  9.045     0.6195E-2  0.9467     0.6195E-2  0.9467   
  9.121     0.5479E-2  0.9510     0.5479E-2  0.9510   
  9.196     0.4919E-2  0.9548     0.4919E-2  0.9548   
  9.271     0.4489E-2  0.9582     0.4489E-2  0.9582   
  9.347     0.4178E-2  0.9614     0.4178E-2  0.9614   
  9.422     0.3989E-2  0.9644     0.3989E-2  0.9644   
  9.497     0.3950E-2  0.9672     0.3950E-2  0.9672   
  9.573     0.4134E-2  0.9701     0.4134E-2  0.9701   
  9.648     0.4727E-2  0.9731     0.4727E-2  0.9731   
  9.724     0.6231E-2  0.9763     0.6231E-2  0.9763   
   9.79900    0.01003    0.97922    0.01003    0.97922
   9.87437    0.01728    0.97716    0.01728    0.97716
   9.94975    0.01585    0.96778    0.01585    0.96778
  10.03     0.8720E-2  0.9672     0.8720E-2  0.9672   
  10.10     0.5314E-2  0.9700     0.5314E-2  0.9700   
  10.18     0.3848E-2  0.9727     0.3848E-2  0.9727   
  10.25     0.3167E-2  0.9750     0.3167E-2  0.9750   
  10.33     0.2872E-2  0.9771     0.2872E-2  0.9771   
  10.40     0.2836E-2  0.9791     0.2836E-2  0.9791   
  10.48     0.3069E-2  0.9811     0.3069E-2  0.9811   
  10.55     0.3719E-2  0.9833     0.3719E-2  0.9833   
  10.63     0.5240E-2  0.9859     0.5240E-2  0.9859   
  10.70     0.8930E-2  0.9885     0.8930E-2  0.9885   
  10.77890    0.01686    0.98721    0.01686    0.98721
  10.85427    0.01862    0.97567    0.01862    0.97567
  10.93     0.1014E-1  0.9721     0.1014E-1  0.9721   
  11.01     0.5531E-2  0.9743     0.5531E-2  0.9743   
  11.08     0.3576E-2  0.9767     0.3576E-2  0.9767   
  11.16     0.2671E-2  0.9786     0.2671E-2  0.9786   
  11.23     0.2240E-2  0.9802     0.2240E-2  0.9802   
  11.31     0.2099E-2  0.9817     0.2099E-2  0.9817   
  11.38     0.2238E-2  0.9831     0.2238E-2  0.9831   
  11.46     0.2852E-2  0.9846     0.2852E-2  0.9846   
  11.53     0.4555E-2  0.9858     0.4555E-2  0.9858   
  11.61     0.7422E-2  0.9844     0.7422E-2  0.9844   
  11.68     0.6011E-2  0.9808     0.6011E-2  0.9808   
  11.76     0.3291E-2  0.9810     0.3291E-2  0.9810   
  11.83     0.2054E-2  0.9822     0.2054E-2  0.9822   
  11.91     0.1504E-2  0.9833     0.1504E-2  0.9833   
  11.98     0.1235E-2  0.9842     0.1235E-2  0.9842   
  12.06     0.1106E-2  0.9850     0.1106E-2  0.9850   
  12.14     0.1075E-2  0.9857     0.1075E-2  0.9857   
  12.21     0.1154E-2  0.9865     0.1154E-2  0.9865   
  12.29     0.1440E-2  0.9872     0.1440E-2  0.9872   
  12.36     0.2214E-2  0.9878     0.2214E-2  0.9878   
  12.44     0.3493E-2  0.9873     0.3493E-2  0.9873   
  12.51     0.2834E-2  0.9859     0.2834E-2  0.9859   
  12.59     0.1626E-2  0.9861     0.1626E-2  0.9861   
  12.66     0.1078E-2  0.9867     0.1078E-2  0.9867   
  12.74     0.8339E-3  0.9873     0.8339E-3  0.9873   
  12.81     0.7131E-3  0.9878     0.7131E-3  0.9878   
  12.89     0.6526E-3  0.9883     0.6526E-3  0.9883   
  12.96     0.6305E-3  0.9887     0.6305E-3  0.9887   
  13.04     0.6433E-3  0.9892     0.6433E-3  0.9892   
  13.12     0.7030E-3  0.9896     0.7030E-3  0.9896   
  13.19     0.8297E-3  0.9901     0.8297E-3  0.9901   
  13.27     0.1046E-2  0.9906     0.1046E-2  0.9906   
  13.34     0.1562E-2  0.9912     0.1562E-2  0.9912   
  13.42     0.2838E-2  0.9916     0.2838E-2  0.9916   
  13.49     0.4428E-2  0.9900     0.4428E-2  0.9900   
  13.57     0.3061E-2  0.9880     0.3061E-2  0.9880   
  13.64     0.1611E-2  0.9883     0.1611E-2  0.9883   
  13.72     0.9808E-3  0.9888     0.9808E-3  0.9888   
  13.79     0.6930E-3  0.9893     0.6930E-3  0.9893   
  13.87     0.5432E-3  0.9897     0.5432E-3  0.9897   
  13.94     0.4590E-3  0.9900     0.4590E-3  0.9900   
  14.02     0.4128E-3  0.9903     0.4128E-3  0.9903   
  14.10     0.3725E-3  0.9905     0.3725E-3  0.9905   
  14.17     0.3296E-3  0.9908     0.3296E-3  0.9908   
  14.25     0.2997E-3  0.9910     0.2997E-3  0.9910   
  14.32     0.2783E-3  0.9912     0.2783E-3  0.9912   
  14.40     0.2615E-3  0.9913     0.2615E-3  0.9913   
  14.47     0.2477E-3  0.9915     0.2477E-3  0.9915   
  14.55     0.2360E-3  0.9917     0.2360E-3  0.9917   
  14.62     0.2258E-3  0.9918     0.2258E-3  0.9918   
  14.70     0.2169E-3  0.9920     0.2169E-3  0.9920   
  14.77     0.2088E-3  0.9921     0.2088E-3  0.9921   
  14.85     0.2016E-3  0.9923     0.2016E-3  0.9923   
  14.92     0.1949E-3  0.9924     0.1949E-3  0.9924   
  15.00     0.1888E-3  0.9925     0.1888E-3  0.9925   
# 
# YAMBO@anomaly.roma2.infn.it x 001 CPUs * 08/29/2008  10:04 [start]
#                                          08/29/2008  10:04 [end]
# 
# Cpu Timing [Min/Max/Average]: 02s/02s/02s
#
# .-Input file : Inputs/02_RPA_no_LF
# | optics                       # [R OPT] Optics
# | chi                          # [R CHI] Dyson equation for Chi.
# | FFTGvecs=  9987          RL  # [FFT] Plane-waves
# | % QpntsRXd
# |  1 | 1 |                     # [Xd] Transferred momenta
# | %
# | % BndsRnXd
# |    1 |  70 |                 # [Xd] Polarization function bands
# | %
# | NGsBlkXd= 1              RL  # [Xd] Response block size
# | % EnRngeXd
# |   0.00000 | 15.00000 |   eV  # [Xd] Energy range
# | %
# | % DmRngeXd
# |   0.10000 |  0.10000 |   eV  # [Xd] Damping range
# | %
# | ETStpsXd= 200                # [Xd] Total Energy steps
# | % LongDrXd
# | 0.1000E-4 | 0.000    | 0.000    |      # [Xd] [cc] Electric Field
# | %
