#   __   __     _        __  __       ____      U  ___  u   
#   \ \ / / U  /"\  U u |" \/ "| u U | __") u    \/"_ \/    
#    \ V /   \/ _ \/   \| |\/| |/   \|  _ \/     | | | |    
#   U_|"|_u  / ___ \    | |  | |     | |_) | .-,_| |_| |    
#     |_|   /_/   \_\   |_|  |_|     |____/   \_)-\___/     
# .-,//|(_   \\    >>  <<,-,,-.     _|| \\_        \\       
#  \_) (__) (__)  (__)  (./  \.)   (__) (__)      (__)      
#                                                           
#               Version 3.3.1 Revision 2093                 
#                http://www.yambo-code.org                  
#
#  E  [meV]   gF^2 sum   gF^2 Fan   gF^2  DW   gF^2 Cor   Gamma(G)   G   Bose   G F
#
  0.000     0.1049E-3  -.7269E-1  0.7275E-1  0.4162E-4  0.1742E-5  -.3328E-6  0.2074E-5
 0.1460     0.1208E-3  -.8373E-1  0.8380E-1  0.4794E-4  0.2015E-5  -.3851E-6  0.2400E-5
 0.2921     0.1391E-3  -.9638E-1  0.9646E-1  0.5518E-4  0.2331E-5  -.4457E-6  0.2776E-5
 0.4381     0.1600E-3  -.1109     0.1109     0.6347E-4  0.2696E-5  -.5157E-6  0.3212E-5
 0.5841     0.1839E-3  -.1274     0.1275     0.7292E-4  0.3118E-5  -.5968E-6  0.3715E-5
 0.7302     0.2109E-3  -.1462     0.1463     0.8370E-4  0.3606E-5  -.6906E-6  0.4297E-5
 0.8762     0.2419E-3  -.1676     0.1677     0.9595E-4  0.4170E-5  -.7992E-6  0.4969E-5
  1.022     0.2768E-3  -.1919     0.1920     0.1098E-3  0.4822E-5  -.9248E-6  0.5747E-5
  1.168     0.3164E-3  -.2193     0.2195     0.1255E-3  0.5575E-5  -.1070E-5  0.6645E-5
  1.314     0.3610E-3  -.2501     0.2503     0.1432E-3  0.6444E-5  -.1238E-5  0.7683E-5
  1.460     0.4110E-3  -.2847     0.2850     0.1630E-3  0.7449E-5  -.1433E-5  0.8882E-5
  1.606     0.4666E-3  -.3233     0.3236     0.1851E-3  0.8609E-5  -.1658E-5  0.1027E-4
  1.752     0.5285E-3  -.3661     0.3664     0.2096E-3  0.9947E-5  -.1919E-5  0.1187E-4
  1.898     0.5966E-3  -.4133     0.4137     0.2366E-3  0.1149E-4  -.2221E-5  0.1371E-4
  2.044     0.6714E-3  -.4649     0.4653     0.2661E-3  0.1327E-4  -.2569E-5  0.1584E-4
  2.190     0.7524E-3  -.5210     0.5214     0.2982E-3  0.1533E-4  -.2973E-5  0.1830E-4
  2.336     0.8391E-3  -.5812     0.5817     0.3326E-3  0.1770E-4  -.3440E-5  0.2114E-4
  2.483     0.9319E-3  -.6451     0.6457     0.3692E-3  0.2043E-4  -.3981E-5  0.2441E-4
  2.629     0.1029E-2  -.7122     0.7128     0.4075E-3  0.2357E-4  -.4606E-5  0.2818E-4
  2.775     0.1130E-2  -.7815     0.7822     0.4471E-3  0.2720E-4  -.5329E-5  0.3253E-4
  2.921     0.1231E-2  -.8519     0.8526     0.4873E-3  0.3138E-4  -.6166E-5  0.3754E-4
  3.067     0.1333E-2  -.9219     0.9227     0.5273E-3  0.3619E-4  -.7134E-5  0.4332E-4
  3.213     0.1432E-2  -.9899     0.9907     0.5661E-3  0.4173E-4  -.8254E-5  0.4998E-4
  3.359     0.1525E-2  -1.054      1.055     0.6026E-3  0.4811E-4  -.9549E-5  0.5766E-4
  3.505     0.1611E-2  -1.112      1.113     0.6358E-3  0.5546E-4  -.1105E-4  0.6651E-4
  3.651     0.1685E-2  -1.163      1.164     0.6644E-3  0.6393E-4  -.1278E-4  0.7671E-4
  3.797     0.1746E-2  -1.204      1.205     0.6875E-3  0.7369E-4  -.1478E-4  0.8847E-4
  3.943     0.1791E-2  -1.234      1.235     0.7042E-3  0.8495E-4  -.1710E-4  0.1020E-3
  4.089     0.1818E-2  -1.251      1.252     0.7137E-3  0.9793E-4  -.1977E-4  0.1177E-3
  4.235     0.1828E-2  -1.256      1.257     0.7156E-3  0.1129E-3  -.2287E-4  0.1358E-3
  4.381     0.1819E-2  -1.247      1.248     0.7100E-3  0.1302E-3  -.2644E-4  0.1566E-3
  4.527     0.1792E-2  -1.225      1.226     0.6969E-3  0.1501E-3  -.3057E-4  0.1807E-3
  4.673     0.1749E-2  -1.192      1.193     0.6769E-3  0.1731E-3  -.3534E-4  0.2084E-3
  4.819     0.1692E-2  -1.148      1.149     0.6509E-3  0.1997E-3  -.4084E-4  0.2405E-3
  4.965     0.1622E-2  -1.096      1.097     0.6196E-3  0.2303E-3  -.4719E-4  0.2775E-3
  5.111     0.1544E-2  -1.037      1.038     0.5844E-3  0.2656E-3  -.5452E-4  0.3202E-3
  5.257     0.1461E-2  -.9731     0.9740     0.5462E-3  0.3064E-3  -.6298E-4  0.3694E-3
  5.403     0.1374E-2  -.9065     0.9073     0.5062E-3  0.3534E-3  -.7272E-4  0.4261E-3
  5.549     0.1289E-2  -.8389     0.8397     0.4653E-3  0.4075E-3  -.8393E-4  0.4914E-3
  5.695     0.1205E-2  -.7720     0.7727     0.4245E-3  0.4698E-3  -.9684E-4  0.5666E-3
  5.841     0.1127E-2  -.7071     0.7078     0.3846E-3  0.5414E-3  -.1117E-3  0.6531E-3
  5.987     0.1055E-2  -.6453     0.6460     0.3460E-3  0.6237E-3  -.1287E-3  0.7524E-3
  6.133     0.9915E-3  -.5876     0.5883     0.3092E-3  0.7181E-3  -.1483E-3  0.8664E-3
  6.279     0.9374E-3  -.5344     0.5351     0.2745E-3  0.8263E-3  -.1707E-3  0.9970E-3
  6.425     0.8944E-3  -.4863     0.4870     0.2421E-3  0.9501E-3  -.1964E-3  0.1146E-2
  6.571     0.8626E-3  -.4434     0.4441     0.2121E-3  0.1091E-2  -.2257E-3  0.1317E-2
  6.717     0.8432E-3  -.4059     0.4066     0.1843E-3  0.1252E-2  -.2591E-3  0.1512E-2
  6.863     0.8367E-3  -.3738     0.3745     0.1588E-3  0.1436E-2  -.2970E-3  0.1733E-2
  7.009     0.8433E-3  -.3469     0.3477     0.1353E-3  0.1643E-2  -.3401E-3  0.1983E-2
  7.155     0.8641E-3  -.3253     0.3260     0.1138E-3  0.1878E-2  -.3888E-3  0.2267E-2
  7.302     0.8995E-3  -.3086     0.3095     0.9395E-4  0.2142E-2  -.4437E-3  0.2586E-2
  7.448     0.9502E-3  -.2969     0.2978     0.7566E-4  0.2438E-2  -.5054E-3  0.2944E-2
  7.594     0.1016E-2  -.2898     0.2908     0.5871E-4  0.2769E-2  -.5742E-3  0.3344E-2
  7.740     0.1099E-2  -.2872     0.2883     0.4291E-4  0.3137E-2  -.6508E-3  0.3788E-2
  7.886     0.1199E-2  -.2890     0.2902     0.2808E-4  0.3543E-2  -.7354E-3  0.4278E-2
  8.032     0.1315E-2  -.2949     0.2962     0.1406E-4  0.3988E-2  -.8284E-3  0.4816E-2
  8.178     0.1449E-2  -.3047     0.3062     0.7411E-6  0.4472E-2  -.9297E-3  0.5402E-2
  8.324     0.1599E-2  -.3183     0.3199     -.1199E-4  0.4994E-2  -.1039E-2  0.6033E-2
  8.470     0.1765E-2  -.3352     0.3370     -.2420E-4  0.5552E-2  -.1157E-2  0.6709E-2
  8.616     0.1943E-2  -.3552     0.3572     -.3590E-4  0.6142E-2  -.1281E-2  0.7423E-2
  8.762     0.2131E-2  -.3780     0.3801     -.4708E-4  0.6757E-2  -.1411E-2  0.8168E-2
  8.908     0.2323E-2  -.4030     0.4054     -.5767E-4  0.7390E-2  -.1546E-2  0.8936E-2
  9.054     0.2512E-2  -.4299     0.4325     -.6756E-4  0.8032E-2  -.1683E-2  0.9714E-2
  9.200     0.2691E-2  -.4580     0.4608     -.7658E-4  0.8670E-2  -.1820E-2  0.1049E-1
  9.346     0.2847E-2  -.4869     0.4898     -.8452E-4  0.9291E-2  -.1955E-2  0.1125E-1
  9.492     0.2967E-2  -.5158     0.5189     -.9116E-4  0.9883E-2  -.2084E-2  0.1197E-1
  9.638     0.3038E-2  -.5442     0.5473     -.9623E-4  0.1043E-1  -.2206E-2  0.1264E-1
  9.784     0.3042E-2  -.5715     0.5746     -.9948E-4  0.1092E-1  -.2317E-2  0.1324E-1
  9.930     0.2966E-2  -.5970     0.6001     -.1007E-3  0.1134E-1  -.2414E-2  0.1375E-1
  10.08     0.2797E-2  -.6203     0.6232     -.9963E-4  0.1167E-1  -.2496E-2  0.1417E-1
  10.22     0.2524E-2  -.6410     0.6436     -.9622E-4  0.1192E-1  -.2560E-2  0.1448E-1
  10.37     0.2144E-2  -.6586     0.6609     -.9040E-4  0.1208E-1  -.2607E-2  0.1468E-1
  10.51     0.1658E-2  -.6731     0.6748     -.8224E-4  0.1214E-1  -.2635E-2  0.1477E-1
  10.66     0.1081E-2  -.6843     0.6854     -.7187E-4  0.1211E-1  -.2646E-2  0.1476E-1
  10.81     0.4336E-3  -.6922     0.6927     -.5954E-4  0.1200E-1  -.2642E-2  0.1464E-1
  10.95     -.2535E-3  -.6971     0.6968     -.4553E-4  0.1182E-1  -.2623E-2  0.1444E-1
  11.10     -.9411E-3  -.6991     0.6982     -.3013E-4  0.1158E-1  -.2594E-2  0.1417E-1
  11.24     -.1584E-2  -.6989     0.6973     -.1363E-4  0.1129E-1  -.2558E-2  0.1385E-1
  11.39     -.2135E-2  -.6968     0.6946     0.3784E-5  0.1098E-1  -.2517E-2  0.1349E-1
  11.54     -.2546E-2  -.6935     0.6909     0.2202E-4  0.1065E-1  -.2476E-2  0.1313E-1
  11.68     -.2777E-2  -.6898     0.6870     0.4117E-4  0.1033E-1  -.2438E-2  0.1277E-1
  11.83     -.2789E-2  -.6863     0.6835     0.6153E-4  0.1003E-1  -.2406E-2  0.1244E-1
  11.97     -.2559E-2  -.6839     0.6813     0.8364E-4  0.9761E-2  -.2383E-2  0.1214E-1
  12.12     -.2073E-2  -.6834     0.6812     0.1083E-3  0.9530E-2  -.2370E-2  0.1190E-1
  12.27     -.1331E-2  -.6855     0.6840     0.1367E-3  0.9346E-2  -.2369E-2  0.1171E-1
  12.41     -.3479E-3  -.6908     0.6903     0.1702E-3  0.9212E-2  -.2380E-2  0.1159E-1
  12.56     0.8476E-3  -.7000     0.7007     0.2105E-3  0.9128E-2  -.2403E-2  0.1153E-1
  12.70     0.2210E-2  -.7137     0.7156     0.2599E-3  0.9092E-2  -.2437E-2  0.1153E-1
  12.85     0.3675E-2  -.7322     0.7355     0.3209E-3  0.9097E-2  -.2480E-2  0.1158E-1
  13.00     0.5159E-2  -.7560     0.7607     0.3962E-3  0.9133E-2  -.2528E-2  0.1166E-1
  13.14     0.6559E-2  -.7854     0.7914     0.4893E-3  0.9189E-2  -.2578E-2  0.1177E-1
  13.29     0.7748E-2  -.8206     0.8277     0.6036E-3  0.9250E-2  -.2626E-2  0.1188E-1
  13.43     0.8580E-2  -.8619     0.8698     0.7431E-3  0.9302E-2  -.2666E-2  0.1197E-1
  13.58     0.8887E-2  -.9096     0.9176     0.9117E-3  0.9327E-2  -.2694E-2  0.1202E-1
  13.73     0.8486E-2  -.9638     0.9712     0.1114E-2  0.9309E-2  -.2705E-2  0.1201E-1
  13.87     0.7182E-2  -1.025      1.031     0.1353E-2  0.9233E-2  -.2693E-2  0.1193E-1
  14.02     0.4779E-2  -1.093      1.096     0.1634E-2  0.9087E-2  -.2656E-2  0.1174E-1
  14.16     0.1092E-2  -1.168      1.167     0.1959E-2  0.8860E-2  -.2590E-2  0.1145E-1
  14.31     -.4050E-2  -1.250      1.244     0.2332E-2  0.8546E-2  -.2493E-2  0.1104E-1
  14.46     -.1078E-1  -1.339      1.326     0.2754E-2  0.8142E-2  -.2364E-2  0.1051E-1
  14.60     -.1920E-1  -1.436      1.413     0.3226E-2  0.7649E-2  -.2204E-2  0.9853E-2
  14.75     -.2935E-1  -1.539      1.506     0.3749E-2  0.7074E-2  -.2016E-2  0.9090E-2
  14.90     -.4121E-1  -1.649      1.604     0.4321E-2  0.6425E-2  -.1802E-2  0.8227E-2
  15.04     -.5471E-1  -1.765      1.705     0.4938E-2  0.5716E-2  -.1566E-2  0.7282E-2
  15.19     -.6969E-1  -1.885      1.810     0.5597E-2  0.4962E-2  -.1315E-2  0.6277E-2
  15.33     -.8594E-1  -2.010      1.918     0.6292E-2  0.4180E-2  -.1054E-2  0.5234E-2
  15.48     -.1032     -2.137      2.027     0.7016E-2  0.3390E-2  -.7894E-3  0.4180E-2
  15.63     -.1211     -2.266      2.137     0.7760E-2  0.2612E-2  -.5297E-3  0.3142E-2
  15.77     -.1393     -2.395      2.247     0.8513E-2  0.1867E-2  -.2821E-3  0.2149E-2
  15.92     -.1573     -2.521      2.355     0.9265E-2  0.1175E-2  -.5446E-4  0.1230E-2
  16.06     -.1748     -2.644      2.459     0.1000E-1  0.5582E-3  0.1454E-3  0.4128E-3
  16.21     -.1913     -2.762      2.560     0.1072E-1  0.3526E-4  0.3096E-3  -.2743E-3
  16.36     -.2062     -2.872      2.655     0.1139E-1  -.3745E-3  0.4308E-3  -.8053E-3
  16.50     -.2193     -2.974      2.743     0.1201E-1  -.6541E-3  0.5021E-3  -.1156E-2
  16.65     -.2301     -3.066      2.823     0.1257E-1  -.7890E-3  0.5177E-3  -.1307E-2
  16.79     -.2383     -3.146      2.894     0.1305E-1  -.7674E-3  0.4725E-3  -.1240E-2
  16.94     -.2435     -3.213      2.956     0.1345E-1  -.5810E-3  0.3630E-3  -.9440E-3
  17.09     -.2456     -3.267      3.008     0.1377E-1  -.2256E-3  0.1871E-3  -.4127E-3
  17.23     -.2444     -3.308      3.049     0.1399E-1  0.2988E-3  -.5537E-4  0.3542E-3
  17.38     -.2400     -3.335      3.080     0.1411E-1  0.9875E-3  -.3629E-3  0.1350E-2
  17.52     -.2323     -3.348      3.102     0.1414E-1  0.1831E-2  -.7319E-3  0.2563E-2
  17.67     -.2215     -3.349      3.113     0.1408E-1  0.2814E-2  -.1157E-2  0.3970E-2
  17.82     -.2078     -3.338      3.117     0.1394E-1  0.3916E-2  -.1629E-2  0.5545E-2
  17.96     -.1917     -3.318      3.112     0.1373E-1  0.5114E-2  -.2139E-2  0.7254E-2
  18.11     -.1734     -3.288      3.101     0.1346E-1  0.6378E-2  -.2676E-2  0.9054E-2
  18.25     -.1534     -3.251      3.085     0.1314E-1  0.7674E-2  -.3225E-2  0.1090E-1
  18.40     -.1321     -3.209      3.065     0.1279E-1  0.8968E-2  -.3771E-2  0.1274E-1
  18.55     -.1100     -3.164      3.041     0.1242E-1  0.1022E-1  -.4300E-2  0.1452E-1
  18.69     -.8745E-1  -3.116      3.016     0.1204E-1  0.1139E-1  -.4796E-2  0.1619E-1
  18.84     -.6482E-1  -3.066      2.990     0.1167E-1  0.1245E-1  -.5244E-2  0.1770E-1
  18.98     -.4239E-1  -3.017      2.963     0.1131E-1  0.1336E-1  -.5630E-2  0.1899E-1
  19.13     -.2037E-1  -2.967      2.936     0.1097E-1  0.1410E-1  -.5945E-2  0.2005E-1
  19.28     0.1111E-2  -2.919      2.909     0.1066E-1  0.1465E-1  -.6180E-2  0.2083E-1
  19.42     0.2198E-1  -2.872      2.883     0.1038E-1  0.1500E-1  -.6331E-2  0.2133E-1
  19.57     0.4222E-1  -2.825      2.857     0.1013E-1  0.1514E-1  -.6398E-2  0.2154E-1
  19.71     0.6188E-1  -2.780      2.832     0.9905E-2  0.1509E-1  -.6384E-2  0.2147E-1
  19.86     0.8104E-1  -2.735      2.806     0.9707E-2  0.1486E-1  -.6296E-2  0.2115E-1
  20.01     0.9977E-1  -2.691      2.782     0.9532E-2  0.1447E-1  -.6143E-2  0.2061E-1
  20.15     0.1182     -2.649      2.757     0.9377E-2  0.1395E-1  -.5937E-2  0.1988E-1
  20.30     0.1364     -2.607      2.734     0.9240E-2  0.1332E-1  -.5691E-2  0.1902E-1
  20.44     0.1545     -2.566      2.711     0.9116E-2  0.1263E-1  -.5418E-2  0.1805E-1
  20.59     0.1727     -2.526      2.690     0.9003E-2  0.1190E-1  -.5130E-2  0.1703E-1
  20.74     0.1909     -2.487      2.669     0.8897E-2  0.1115E-1  -.4839E-2  0.1599E-1
  20.88     0.2092     -2.450      2.650     0.8795E-2  0.1042E-1  -.4556E-2  0.1497E-1
  21.03     0.2277     -2.414      2.633     0.8694E-2  0.9711E-2  -.4290E-2  0.1400E-1
  21.17     0.2465     -2.378      2.616     0.8588E-2  0.9056E-2  -.4048E-2  0.1310E-1
  21.32     0.2656     -2.343      2.600     0.8474E-2  0.8463E-2  -.3837E-2  0.1230E-1
  21.47     0.2850     -2.308      2.584     0.8348E-2  0.7944E-2  -.3662E-2  0.1161E-1
  21.61     0.3047     -2.272      2.568     0.8205E-2  0.7505E-2  -.3527E-2  0.1103E-1
  21.76     0.3247     -2.235      2.552     0.8041E-2  0.7151E-2  -.3433E-2  0.1058E-1
  21.90     0.3451     -2.197      2.534     0.7851E-2  0.6887E-2  -.3384E-2  0.1027E-1
  22.05     0.3657     -2.157      2.515     0.7632E-2  0.6712E-2  -.3379E-2  0.1009E-1
  22.20     0.3865     -2.114      2.493     0.7381E-2  0.6628E-2  -.3421E-2  0.1005E-1
  22.34     0.4074     -2.069      2.470     0.7096E-2  0.6634E-2  -.3508E-2  0.1014E-1
  22.49     0.4284     -2.022      2.443     0.6775E-2  0.6727E-2  -.3639E-2  0.1037E-1
  22.63     0.4492     -1.971      2.414     0.6418E-2  0.6903E-2  -.3815E-2  0.1072E-1
  22.78     0.4699     -1.918      2.382     0.6026E-2  0.7160E-2  -.4032E-2  0.1119E-1
  22.93     0.4902     -1.862      2.347     0.5600E-2  0.7489E-2  -.4289E-2  0.1178E-1
  23.07     0.5100     -1.804      2.309     0.5145E-2  0.7885E-2  -.4580E-2  0.1246E-1
  23.22     0.5293     -1.744      2.269     0.4664E-2  0.8338E-2  -.4901E-2  0.1324E-1
  23.36     0.5477     -1.683      2.226     0.4164E-2  0.8837E-2  -.5246E-2  0.1408E-1
  23.51     0.5653     -1.620      2.182     0.3652E-2  0.9370E-2  -.5609E-2  0.1498E-1
  23.66     0.5819     -1.558      2.136     0.3135E-2  0.9921E-2  -.5980E-2  0.1590E-1
  23.80     0.5973     -1.495      2.090     0.2623E-2  0.1048E-1  -.6351E-2  0.1683E-1
  23.95     0.6115     -1.434      2.043     0.2123E-2  0.1102E-1  -.6712E-2  0.1773E-1
  24.10     0.6244     -1.374      1.997     0.1644E-2  0.1153E-1  -.7053E-2  0.1859E-1
  24.24     0.6358     -1.316      1.950     0.1194E-2  0.1200E-1  -.7364E-2  0.1937E-1
  24.39     0.6458     -1.260      1.905     0.7785E-3  0.1241E-1  -.7637E-2  0.2005E-1
  24.53     0.6542     -1.207      1.860     0.4031E-3  0.1274E-1  -.7864E-2  0.2061E-1
  24.68     0.6612     -1.156      1.817     0.7053E-4  0.1299E-1  -.8038E-2  0.2103E-1
  24.83     0.6667     -1.108      1.775     -.2179E-3  0.1315E-1  -.8156E-2  0.2131E-1
  24.97     0.6709     -1.063      1.734     -.4628E-3  0.1321E-1  -.8214E-2  0.2143E-1
  25.12     0.6737     -1.021      1.695     -.6664E-3  0.1318E-1  -.8212E-2  0.2139E-1
  25.26     0.6755     -.9804      1.657     -.8323E-3  0.1305E-1  -.8154E-2  0.2121E-1
  25.41     0.6761     -.9425      1.620     -.9653E-3  0.1284E-1  -.8042E-2  0.2088E-1
  25.56     0.6759     -.9066      1.584     -.1071E-2  0.1255E-1  -.7884E-2  0.2043E-1
  25.70     0.6750     -.8725      1.549     -.1154E-2  0.1220E-1  -.7685E-2  0.1988E-1
  25.85     0.6734     -.8400      1.515     -.1221E-2  0.1179E-1  -.7455E-2  0.1924E-1
  25.99     0.6713     -.8089      1.481     -.1277E-2  0.1134E-1  -.7201E-2  0.1855E-1
  26.14     0.6687     -.7790      1.449     -.1326E-2  0.1087E-1  -.6930E-2  0.1780E-1
  26.29     0.6657     -.7504      1.417     -.1373E-2  0.1039E-1  -.6652E-2  0.1704E-1
  26.43     0.6622     -.7227      1.386     -.1419E-2  0.9902E-2  -.6371E-2  0.1627E-1
  26.58     0.6580     -.6959      1.355     -.1467E-2  0.9418E-2  -.6092E-2  0.1551E-1
  26.72     0.6531     -.6698      1.324     -.1518E-2  0.8946E-2  -.5819E-2  0.1476E-1
  26.87     0.6473     -.6443      1.293     -.1571E-2  0.8488E-2  -.5553E-2  0.1404E-1
  27.02     0.6404     -.6193      1.261     -.1624E-2  0.8046E-2  -.5295E-2  0.1334E-1
  27.16     0.6320     -.5945      1.228     -.1678E-2  0.7620E-2  -.5045E-2  0.1266E-1
  27.31     0.6221     -.5698      1.194     -.1728E-2  0.7208E-2  -.4801E-2  0.1201E-1
  27.45     0.6103     -.5453      1.157     -.1775E-2  0.6809E-2  -.4562E-2  0.1137E-1
  27.60     0.5966     -.5207      1.119     -.1815E-2  0.6421E-2  -.4326E-2  0.1075E-1
  27.75     0.5807     -.4961      1.079     -.1847E-2  0.6041E-2  -.4092E-2  0.1013E-1
  27.89     0.5628     -.4716      1.036     -.1870E-2  0.5668E-2  -.3860E-2  0.9528E-2
  28.04     0.5428     -.4471     0.9918     -.1884E-2  0.5302E-2  -.3628E-2  0.8930E-2
  28.18     0.5209     -.4229     0.9457     -.1889E-2  0.4942E-2  -.3397E-2  0.8340E-2
  28.33     0.4975     -.3991     0.8984     -.1886E-2  0.4590E-2  -.3169E-2  0.7759E-2
  28.48     0.4727     -.3759     0.8505     -.1876E-2  0.4247E-2  -.2943E-2  0.7190E-2
  28.62     0.4471     -.3536     0.8025     -.1861E-2  0.3914E-2  -.2723E-2  0.6637E-2
  28.77     0.4210     -.3324     0.7552     -.1843E-2  0.3593E-2  -.2509E-2  0.6103E-2
  28.91     0.3948     -.3125     0.7092     -.1825E-2  0.3288E-2  -.2304E-2  0.5592E-2
  29.06     0.3691     -.2942     0.6651     -.1809E-2  0.2998E-2  -.2109E-2  0.5106E-2
  29.21     0.3441     -.2776     0.6235     -.1795E-2  0.2726E-2  -.1924E-2  0.4650E-2
  29.35     0.3203     -.2629     0.5849     -.1787E-2  0.2472E-2  -.1752E-2  0.4224E-2
  29.50     0.2978     -.2501     0.5496     -.1784E-2  0.2238E-2  -.1592E-2  0.3830E-2
  29.64     0.2768     -.2393     0.5179     -.1788E-2  0.2023E-2  -.1445E-2  0.3468E-2
  29.79     0.2576     -.2304     0.4898     -.1798E-2  0.1828E-2  -.1311E-2  0.3138E-2
  29.94     0.2400     -.2235     0.4653     -.1814E-2  0.1650E-2  -.1189E-2  0.2839E-2
  30.08     0.2242     -.2183     0.4444     -.1833E-2  0.1490E-2  -.1079E-2  0.2570E-2
  30.23     0.2101     -.2148     0.4267     -.1856E-2  0.1347E-2  -.9803E-3  0.2327E-2
  30.37     0.1975     -.2127     0.4121     -.1880E-2  0.1218E-2  -.8914E-3  0.2109E-2
  30.52     0.1863     -.2119     0.4002     -.1904E-2  0.1102E-2  -.8115E-3  0.1914E-2
  30.67     0.1765     -.2122     0.3906     -.1926E-2  0.9984E-3  -.7396E-3  0.1738E-2
  30.81     0.1678     -.2134     0.3831     -.1945E-2  0.9051E-3  -.6747E-3  0.1580E-2
  30.96     0.1602     -.2152     0.3774     -.1959E-2  0.8211E-3  -.6158E-3  0.1437E-2
  31.10     0.1537     -.2175     0.3731     -.1968E-2  0.7450E-3  -.5623E-3  0.1307E-2
  31.25     0.1480     -.2200     0.3700     -.1973E-2  0.6760E-3  -.5134E-3  0.1189E-2
  31.40     0.1433     -.2227     0.3680     -.1973E-2  0.6132E-3  -.4685E-3  0.1082E-2
  31.54     0.1395     -.2254     0.3669     -.1971E-2  0.5559E-3  -.4272E-3  0.9831E-3
  31.69     0.1366     -.2279     0.3665     -.1967E-2  0.5036E-3  -.3893E-3  0.8928E-3
  31.83     0.1347     -.2302     0.3669     -.1963E-2  0.4558E-3  -.3544E-3  0.8102E-3
  31.98     0.1338     -.2320     0.3678     -.1961E-2  0.4122E-3  -.3224E-3  0.7346E-3
  32.13     0.1338     -.2334     0.3692     -.1963E-2  0.3726E-3  -.2931E-3  0.6657E-3
  32.27     0.1349     -.2341     0.3709     -.1971E-2  0.3367E-3  -.2665E-3  0.6032E-3
  32.42     0.1370     -.2341     0.3730     -.1985E-2  0.3043E-3  -.2424E-3  0.5467E-3
  32.56     0.1400     -.2332     0.3752     -.2006E-2  0.2753E-3  -.2208E-3  0.4960E-3
  32.71     0.1439     -.2313     0.3773     -.2035E-2  0.2494E-3  -.2014E-3  0.4508E-3
  32.86     0.1487     -.2285     0.3792     -.2072E-2  0.2264E-3  -.1843E-3  0.4107E-3
  33.00     0.1541     -.2245     0.3808     -.2116E-2  0.2062E-3  -.1693E-3  0.3754E-3
  33.15     0.1602     -.2195     0.3819     -.2166E-2  0.1884E-3  -.1561E-3  0.3445E-3
  33.29     0.1666     -.2135     0.3824     -.2222E-2  0.1729E-3  -.1447E-3  0.3176E-3
  33.44     0.1733     -.2066     0.3822     -.2280E-2  0.1594E-3  -.1348E-3  0.2942E-3
  33.59     0.1800     -.1989     0.3813     -.2340E-2  0.1478E-3  -.1263E-3  0.2740E-3
  33.73     0.1867     -.1906     0.3797     -.2399E-2  0.1376E-3  -.1189E-3  0.2565E-3
  33.88     0.1930     -.1819     0.3773     -.2455E-2  0.1288E-3  -.1125E-3  0.2413E-3
  34.03     0.1988     -.1730     0.3743     -.2506E-2  0.1210E-3  -.1069E-3  0.2279E-3
  34.17     0.2040     -.1641     0.3707     -.2551E-2  0.1141E-3  -.1019E-3  0.2160E-3
  34.32     0.2085     -.1555     0.3666     -.2587E-2  0.1079E-3  -.9730E-4  0.2052E-3
  34.46     0.2121     -.1473     0.3620     -.2613E-2  0.1022E-3  -.9302E-4  0.1952E-3
  34.61     0.2147     -.1398     0.3571     -.2628E-2  0.9680E-4  -.8891E-4  0.1857E-3
  34.76     0.2165     -.1329     0.3521     -.2631E-2  0.9166E-4  -.8489E-4  0.1766E-3
  34.90     0.2174     -.1269     0.3469     -.2624E-2  0.8668E-4  -.8087E-4  0.1676E-3
  35.05     0.2174     -.1219     0.3419     -.2605E-2  0.8179E-4  -.7683E-4  0.1586E-3
  35.19     0.2168     -.1177     0.3371     -.2577E-2  0.7695E-4  -.7274E-4  0.1497E-3
  35.34     0.2157     -.1145     0.3327     -.2541E-2  0.7217E-4  -.6862E-4  0.1408E-3
  35.49     0.2141     -.1121     0.3288     -.2499E-2  0.6746E-4  -.6447E-4  0.1319E-3
  35.63     0.2125     -.1106     0.3256     -.2453E-2  0.6282E-4  -.6034E-4  0.1232E-3
  35.78     0.2108     -.1100     0.3232     -.2404E-2  0.5830E-4  -.5627E-4  0.1146E-3
  35.92     0.2094     -.1099     0.3217     -.2356E-2  0.5393E-4  -.5229E-4  0.1062E-3
  36.07     0.2084     -.1105     0.3213     -.2311E-2  0.4975E-4  -.4845E-4  0.9820E-4
  36.22     0.2080     -.1116     0.3219     -.2270E-2  0.4578E-4  -.4479E-4  0.9057E-4
  36.36     0.2083     -.1130     0.3235     -.2234E-2  0.4206E-4  -.4134E-4  0.8340E-4
  36.51     0.2094     -.1147     0.3263     -.2207E-2  0.3860E-4  -.3813E-4  0.7673E-4
  36.65     0.2114     -.1165     0.3301     -.2188E-2  0.3542E-4  -.3517E-4  0.7060E-4
  36.80     0.2144     -.1182     0.3348     -.2178E-2  0.3253E-4  -.3248E-4  0.6501E-4
  36.95     0.2184     -.1200     0.3405     -.2178E-2  0.2992E-4  -.3006E-4  0.5997E-4
  37.09     0.2233     -.1215     0.3469     -.2188E-2  0.2758E-4  -.2789E-4  0.5547E-4
  37.24     0.2291     -.1228     0.3541     -.2208E-2  0.2551E-4  -.2598E-4  0.5149E-4
  37.38     0.2356     -.1239     0.3618     -.2236E-2  0.2368E-4  -.2430E-4  0.4798E-4
  37.53     0.2429     -.1248     0.3699     -.2271E-2  0.2208E-4  -.2283E-4  0.4492E-4
  37.68     0.2505     -.1254     0.3783     -.2311E-2  0.2068E-4  -.2155E-4  0.4223E-4
  37.82     0.2585     -.1259     0.3867     -.2354E-2  0.1945E-4  -.2043E-4  0.3988E-4
  37.97     0.2664     -.1264     0.3952     -.2396E-2  0.1836E-4  -.1944E-4  0.3779E-4
  38.11     0.2740     -.1270     0.4035     -.2436E-2  0.1738E-4  -.1854E-4  0.3592E-4
  38.26     0.2812     -.1279     0.4115     -.2470E-2  0.1649E-4  -.1772E-4  0.3421E-4
  38.41     0.2876     -.1291     0.4192     -.2496E-2  0.1566E-4  -.1694E-4  0.3260E-4
  38.55     0.2930     -.1310     0.4265     -.2511E-2  0.1487E-4  -.1618E-4  0.3104E-4
  38.70     0.2974     -.1336     0.4335     -.2512E-2  0.1409E-4  -.1542E-4  0.2951E-4
  38.84     0.3006     -.1372     0.4402     -.2500E-2  0.1333E-4  -.1464E-4  0.2797E-4
  38.99     0.3026     -.1418     0.4469     -.2473E-2  0.1256E-4  -.1385E-4  0.2642E-4
  39.14     0.3035     -.1476     0.4536     -.2432E-2  0.1179E-4  -.1304E-4  0.2483E-4
  39.28     0.3035     -.1546     0.4606     -.2378E-2  0.1101E-4  -.1220E-4  0.2321E-4
  39.43     0.3028     -.1630     0.4681     -.2312E-2  0.1023E-4  -.1134E-4  0.2156E-4
  39.57     0.3015     -.1727     0.4764     -.2238E-2  0.9441E-5  -.1046E-4  0.1991E-4
  39.72     0.3000     -.1836     0.4857     -.2157E-2  0.8659E-5  -.9584E-5  0.1824E-4
  39.87     0.2985     -.1956     0.4962     -.2072E-2  0.7886E-5  -.8700E-5  0.1659E-4
  40.01     0.2973     -.2085     0.5078     -.1987E-2  0.7126E-5  -.7819E-5  0.1495E-4
  40.16     0.2966     -.2223     0.5207     -.1903E-2  0.6380E-5  -.6943E-5  0.1332E-4
  40.30     0.2965     -.2365     0.5348     -.1824E-2  0.5650E-5  -.6071E-5  0.1172E-4
  40.45     0.2973     -.2509     0.5499     -.1751E-2  0.4932E-5  -.5200E-5  0.1013E-4
  40.60     0.2989     -.2652     0.5658     -.1686E-2  0.4224E-5  -.4325E-5  0.8549E-5
  40.74     0.3015     -.2791     0.5822     -.1630E-2  0.3519E-5  -.3435E-5  0.6954E-5
  40.89     0.3050     -.2922     0.5988     -.1584E-2  0.2807E-5  -.2520E-5  0.5327E-5
  41.03     0.3095     -.3041     0.6151     -.1548E-2  0.2079E-5  -.1562E-5  0.3641E-5
  41.18     0.3148     -.3146     0.6309     -.1522E-2  0.1320E-5  -.5461E-6  0.1866E-5
  41.33     0.3209     -.3233     0.6457     -.1507E-2  0.5177E-6  0.5497E-6  -.3197E-7
  41.47     0.3276     -.3300     0.6591     -.1502E-2  -.3453E-6  0.1748E-5  -.2093E-5
  41.62     0.3349     -.3346     0.6709     -.1506E-2  -.1287E-5  0.3073E-5  -.4359E-5
  41.76     0.3425     -.3368     0.6809     -.1518E-2  -.2325E-5  0.4551E-5  -.6876E-5
  41.91     0.3504     -.3368     0.6887     -.1537E-2  -.3481E-5  0.6213E-5  -.9693E-5
  42.06     0.3583     -.3344     0.6942     -.1560E-2  -.4774E-5  0.8086E-5  -.1286E-4
  42.20     0.3660     -.3299     0.6975     -.1585E-2  -.6228E-5  0.1020E-4  -.1643E-4
  42.35     0.3733     -.3234     0.6984     -.1610E-2  -.7862E-5  0.1259E-4  -.2045E-4
  42.49     0.3800     -.3153     0.6969     -.1631E-2  -.9697E-5  0.1529E-4  -.2498E-4
  42.64     0.3857     -.3058     0.6931     -.1646E-2  -.1175E-4  0.1831E-4  -.3007E-4
  42.79     0.3903     -.2953     0.6872     -.1651E-2  -.1405E-4  0.2170E-4  -.3574E-4
  42.93     0.3934     -.2843     0.6793     -.1644E-2  -.1659E-4  0.2546E-4  -.4205E-4
  43.08     0.3949     -.2731     0.6696     -.1620E-2  -.1939E-4  0.2961E-4  -.4900E-4
  43.23     0.3944     -.2621     0.6582     -.1578E-2  -.2246E-4  0.3416E-4  -.5661E-4
  43.37     0.3920     -.2519     0.6453     -.1514E-2  -.2578E-4  0.3910E-4  -.6488E-4
  43.52     0.3873     -.2426     0.6313     -.1428E-2  -.2935E-4  0.4442E-4  -.7377E-4
  43.66     0.3803     -.2347     0.6164     -.1316E-2  -.3314E-4  0.5008E-4  -.8323E-4
  43.81     0.3711     -.2284     0.6007     -.1179E-2  -.3713E-4  0.5605E-4  -.9318E-4
  43.96     0.3596     -.2240     0.5846     -.1016E-2  -.4126E-4  0.6226E-4  -.1035E-3
  44.10     0.3460     -.2215     0.5684     -.8288E-3  -.4549E-4  0.6863E-4  -.1141E-3
  44.25     0.3304     -.2211     0.5521     -.6180E-3  -.4975E-4  0.7509E-4  -.1248E-3
  44.39     0.3131     -.2228     0.5362     -.3861E-3  -.5397E-4  0.8152E-4  -.1355E-3
  44.54     0.2943     -.2264     0.5208     -.1362E-3  -.5809E-4  0.8784E-4  -.1459E-3
  44.69     0.2743     -.2320     0.5062     0.1284E-3  -.6203E-4  0.9395E-4  -.1560E-3
  44.83     0.2536     -.2392     0.4924     0.4040E-3  -.6574E-4  0.9977E-4  -.1655E-3
  44.98     0.2323     -.2480     0.4797     0.6867E-3  -.6917E-4  0.1052E-3  -.1744E-3
  45.12     0.2110     -.2582     0.4682     0.9728E-3  -.7229E-4  0.1103E-3  -.1826E-3
  45.27     0.1898     -.2695     0.4580     0.1259E-2  -.7510E-4  0.1150E-3  -.1901E-3
  45.42     0.1691     -.2817     0.4492     0.1542E-2  -.7763E-4  0.1194E-3  -.1970E-3
  45.56     0.1490     -.2948     0.4419     0.1820E-2  -.7992E-4  0.1235E-3  -.2034E-3
  45.71     0.1299     -.3084     0.4362     0.2090E-2  -.8206E-4  0.1275E-3  -.2096E-3
  45.85     0.1118     -.3224     0.4319     0.2352E-2  -.8416E-4  0.1316E-3  -.2157E-3
  46.00     0.9498E-1  -.3368     0.4292     0.2603E-2  -.8633E-4  0.1359E-3  -.2222E-3
  46.15     0.7942E-1  -.3513     0.4279     0.2845E-2  -.8873E-4  0.1407E-3  -.2294E-3
  46.29     0.6522E-1  -.3660     0.4281     0.3077E-2  -.9151E-4  0.1462E-3  -.2377E-3
  46.44     0.5240E-1  -.3806     0.4297     0.3299E-2  -.9483E-4  0.1528E-3  -.2476E-3
  46.58     0.4096E-1  -.3951     0.4325     0.3513E-2  -.9887E-4  0.1606E-3  -.2595E-3
  46.73     0.3090E-1  -.4094     0.4366     0.3719E-2  -.1038E-3  0.1700E-3  -.2738E-3
  46.88     0.2218E-1  -.4235     0.4417     0.3917E-2  -.1098E-3  0.1813E-3  -.2911E-3
  47.02     0.1476E-1  -.4372     0.4479     0.4110E-2  -.1170E-3  0.1947E-3  -.3116E-3
  47.17     0.8590E-2  -.4507     0.4549     0.4298E-2  -.1256E-3  0.2105E-3  -.3360E-3
  47.31     0.3628E-2  -.4636     0.4628     0.4481E-2  -.1357E-3  0.2290E-3  -.3647E-3
  47.46     -.1765E-3  -.4761     0.4712     0.4659E-2  -.1475E-3  0.2504E-3  -.3979E-3
  47.61     -.2864E-2  -.4879     0.4802     0.4833E-2  -.1612E-3  0.2750E-3  -.4363E-3
  47.75     -.4471E-2  -.4989     0.4894     0.5002E-2  -.1769E-3  0.3032E-3  -.4801E-3
  47.90     -.5030E-2  -.5090     0.4988     0.5165E-2  -.1947E-3  0.3349E-3  -.5296E-3
  48.04     -.4567E-2  -.5179     0.5080     0.5321E-2  -.2147E-3  0.3706E-3  -.5852E-3
  48.19     -.3107E-2  -.5256     0.5170     0.5468E-2  -.2369E-3  0.4103E-3  -.6472E-3
  48.34     -.6772E-3  -.5318     0.5255     0.5606E-2  -.2615E-3  0.4541E-3  -.7156E-3
  48.48     0.2696E-2  -.5364     0.5334     0.5732E-2  -.2885E-3  0.5021E-3  -.7906E-3
  48.63     0.6978E-2  -.5393     0.5404     0.5846E-2  -.3178E-3  0.5545E-3  -.8723E-3
  48.77     0.1213E-1  -.5404     0.5466     0.5947E-2  -.3495E-3  0.6110E-3  -.9605E-3
  48.92     0.1811E-1  -.5398     0.5519     0.6035E-2  -.3834E-3  0.6716E-3  -.1055E-2
  49.07     0.2488E-1  -.5376     0.5563     0.6110E-2  -.4195E-3  0.7362E-3  -.1156E-2
  49.21     0.3238E-1  -.5338     0.5600     0.6174E-2  -.4576E-3  0.8046E-3  -.1262E-2
  49.36     0.4056E-1  -.5288     0.5631     0.6227E-2  -.4975E-3  0.8766E-3  -.1374E-2
  49.50     0.4939E-1  -.5227     0.5658     0.6271E-2  -.5392E-3  0.9520E-3  -.1491E-2
  49.65     0.5883E-1  -.5159     0.5684     0.6308E-2  -.5826E-3  0.1031E-2  -.1613E-2
  49.80     0.6885E-1  -.5086     0.5711     0.6340E-2  -.6274E-3  0.1112E-2  -.1739E-2
  49.94     0.7941E-1  -.5010     0.5740     0.6368E-2  -.6736E-3  0.1197E-2  -.1870E-2
  50.09     0.9052E-1  -.4933     0.5774     0.6394E-2  -.7212E-3  0.1284E-2  -.2005E-2
  50.23     0.1021     -.4857     0.5814     0.6420E-2  -.7701E-3  0.1374E-2  -.2144E-2
  50.38     0.1143     -.4782     0.5861     0.6445E-2  -.8202E-3  0.1467E-2  -.2287E-2
  50.53     0.1269     -.4710     0.5914     0.6471E-2  -.8714E-3  0.1562E-2  -.2433E-2
  50.67     0.1400     -.4637     0.5973     0.6497E-2  -.9234E-3  0.1658E-2  -.2582E-2
  50.82     0.1536     -.4565     0.6035     0.6522E-2  -.9758E-3  0.1756E-2  -.2732E-2
  50.96     0.1675     -.4490     0.6100     0.6543E-2  -.1028E-2  0.1853E-2  -.2881E-2
  51.11     0.1819     -.4411     0.6164     0.6557E-2  -.1079E-2  0.1949E-2  -.3028E-2
  51.26     0.1966     -.4325     0.6225     0.6560E-2  -.1128E-2  0.2040E-2  -.3168E-2
  51.40     0.2117     -.4229     0.6280     0.6546E-2  -.1173E-2  0.2125E-2  -.3298E-2
  51.55     0.2270     -.4121     0.6326     0.6512E-2  -.1212E-2  0.2201E-2  -.3413E-2
  51.69     0.2426     -.4000     0.6361     0.6450E-2  -.1245E-2  0.2264E-2  -.3509E-2
  51.84     0.2584     -.3862     0.6382     0.6356E-2  -.1270E-2  0.2311E-2  -.3581E-2
  51.99     0.2743     -.3707     0.6388     0.6224E-2  -.1284E-2  0.2341E-2  -.3625E-2
  52.13     0.2905     -.3533     0.6377     0.6051E-2  -.1287E-2  0.2350E-2  -.3637E-2
  52.28     0.3068     -.3341     0.6350     0.5833E-2  -.1278E-2  0.2337E-2  -.3616E-2
  52.42     0.3233     -.3130     0.6307     0.5570E-2  -.1257E-2  0.2302E-2  -.3559E-2
  52.57     0.3400     -.2901     0.6248     0.5262E-2  -.1224E-2  0.2245E-2  -.3468E-2
  52.72     0.3568     -.2656     0.6175     0.4911E-2  -.1178E-2  0.2166E-2  -.3344E-2
  52.86     0.3739     -.2396     0.6090     0.4519E-2  -.1122E-2  0.2068E-2  -.3190E-2
  53.01     0.3912     -.2123     0.5994     0.4091E-2  -.1056E-2  0.1952E-2  -.3008E-2
  53.16     0.4087     -.1840     0.5891     0.3633E-2  -.9817E-3  0.1821E-2  -.2803E-2
  53.30     0.4265     -.1548     0.5782     0.3150E-2  -.9007E-3  0.1679E-2  -.2580E-2
  53.45     0.4447     -.1250     0.5670     0.2647E-2  -.8142E-3  0.1528E-2  -.2342E-2
  53.59     0.4631     -.9479E-1  0.5558     0.2131E-2  -.7237E-3  0.1369E-2  -.2093E-2
  53.74     0.4820     -.6432E-1  0.5447     0.1606E-2  -.6302E-3  0.1207E-2  -.1837E-2
  53.89     0.5014     -.3376E-1  0.5340     0.1078E-2  -.5344E-3  0.1041E-2  -.1576E-2
  54.03     0.5212     -.3215E-2  0.5239     0.5489E-3  -.4370E-3  0.8737E-3  -.1311E-2
  54.18     0.5418     0.2724E-1  0.5145     0.2274E-4  -.3381E-3  0.7051E-3  -.1043E-2
  54.32     0.5631     0.5757E-1  0.5061     -.4991E-3  -.2374E-3  0.5353E-3  -.7727E-3
  54.47     0.5854     0.8779E-1  0.4987     -.1016E-2  -.1347E-3  0.3637E-3  -.4984E-3
  54.62     0.6090     0.1180     0.4925     -.1528E-2  -.2908E-4  0.1892E-3  -.2183E-3
  54.76     0.6339     0.1482     0.4878     -.2037E-2  0.8052E-4  0.1041E-4  0.7011E-4
  54.91     0.6608     0.1787     0.4846     -.2546E-2  0.1955E-3  -.1748E-3  0.3703E-3
  55.05     0.6899     0.2097     0.4833     -.3059E-2  0.3174E-3  -.3690E-3  0.6864E-3
  55.20     0.7218     0.2414     0.4840     -.3582E-2  0.4483E-3  -.5750E-3  0.1023E-2
  55.35     0.7572     0.2744     0.4869     -.4121E-2  0.5905E-3  -.7963E-3  0.1387E-2
  55.49     0.7968     0.3090     0.4925     -.4685E-2  0.7465E-3  -.1037E-2  0.1784E-2
  55.64     0.8415     0.3458     0.5010     -.5283E-2  0.9195E-3  -.1302E-2  0.2221E-2
  55.78     0.8922     0.3854     0.5127     -.5926E-2  0.1113E-2  -.1595E-2  0.2708E-2
  55.93     0.9499     0.4284     0.5281     -.6626E-2  0.1330E-2  -.1923E-2  0.3254E-2
  56.08      1.016     0.4756     0.5475     -.7396E-2  0.1576E-2  -.2293E-2  0.3870E-2
  56.22      1.090     0.5275     0.5712     -.8248E-2  0.1856E-2  -.2712E-2  0.4568E-2
  56.37      1.175     0.5849     0.5996     -.9198E-2  0.2176E-2  -.3189E-2  0.5365E-2
  56.51      1.271     0.6485     0.6330     -.1026E-1  0.2542E-2  -.3733E-2  0.6275E-2
  56.66      1.379     0.7190     0.6715     -.1145E-1  0.2962E-2  -.4356E-2  0.7318E-2
  56.81      1.499     0.7970     0.7152     -.1277E-1  0.3444E-2  -.5071E-2  0.8515E-2
  56.95      1.633     0.8830     0.7642     -.1426E-1  0.3999E-2  -.5893E-2  0.9892E-2
  57.10      1.780     0.9777     0.8183     -.1592E-1  0.4639E-2  -.6838E-2  0.1148E-1
  57.24      1.941      1.081     0.8773     -.1777E-1  0.5376E-2  -.7925E-2  0.1330E-1
  57.39      2.116      1.195     0.9408     -.1982E-1  0.6227E-2  -.9178E-2  0.1540E-1
  57.54      2.304      1.318      1.008     -.2211E-1  0.7207E-2  -.1062E-1  0.1783E-1
  57.68      2.506      1.451      1.079     -.2464E-1  0.8339E-2  -.1228E-1  0.2062E-1
  57.83      2.720      1.595      1.152     -.2743E-1  0.9643E-2  -.1419E-1  0.2384E-1
  57.97      2.947      1.750      1.227     -.3053E-1  0.1115E-1  -.1640E-1  0.2754E-1
  58.12      3.185      1.916      1.303     -.3394E-1  0.1288E-1  -.1893E-1  0.3181E-1
  58.27      3.435      2.094      1.379     -.3770E-1  0.1488E-1  -.2184E-1  0.3672E-1
  58.41      3.696      2.284      1.454     -.4184E-1  0.1718E-1  -.2519E-1  0.4237E-1
  58.56      3.967      2.487      1.527     -.4639E-1  0.1983E-1  -.2902E-1  0.4885E-1
  58.70      4.249      2.703      1.597     -.5139E-1  0.2287E-1  -.3342E-1  0.5629E-1
  58.85      4.540      2.933      1.664     -.5688E-1  0.2637E-1  -.3845E-1  0.6482E-1
  59.00      4.843      3.178      1.728     -.6288E-1  0.3039E-1  -.4419E-1  0.7458E-1
  59.14      5.156      3.438      1.787     -.6944E-1  0.3499E-1  -.5074E-1  0.8574E-1
  59.29      5.481      3.714      1.843     -.7657E-1  0.4027E-1  -.5820E-1  0.9846E-1
  59.43      5.817      4.007      1.894     -.8431E-1  0.4629E-1  -.6665E-1  0.1129   
  59.58      6.165      4.316      1.941     -.9266E-1  0.5317E-1  -.7622E-1  0.1294   
  59.72651    6.52496    4.64189    1.98470   -0.10163    0.06101   -0.08701    0.14803
  59.87254    6.89608    4.98333    2.02393   -0.11118    0.06993   -0.09914    0.16907
  60.01857    7.27704    5.33912    2.05921   -0.12129    0.08004   -0.11272    0.19276
  60.16460    7.66567    5.70713    2.09041   -0.13187    0.09148   -0.12785    0.21933
  60.31063    8.05888    6.08440    2.11730   -0.14281    0.10440   -0.14462    0.24902
  60.45666    8.45255    6.46709    2.13944   -0.15398    0.11894   -0.16310    0.28204
  60.60269    8.84159    6.85049    2.15629   -0.16519    0.13526   -0.18335    0.31861
  60.74872    9.22005    7.22912    2.16713   -0.17620    0.15352   -0.20537    0.35888
  60.89474    9.58130    7.59684    2.17119   -0.18673    0.17388   -0.22913    0.40301
  61.04078    9.91833    7.94711    2.16767   -0.19646    0.19651   -0.25457    0.45108
  61.18681   10.22406    8.27325    2.15583   -0.20502    0.22160   -0.28154    0.50314
  61.33284   10.49176    8.56870    2.13505   -0.21199    0.24931   -0.30987    0.55918
  61.47887   10.71531    8.82731    2.10493   -0.21693    0.27984   -0.33928    0.61912
  61.62490   10.88966    9.04371    2.06530   -0.21935    0.31340   -0.36948    0.68288
  61.77094   11.01101    9.21348    2.01628   -0.21875    0.35021   -0.40009    0.75030
  61.91697   11.07705    9.33336    1.95830   -0.21460    0.39053   -0.43071    0.82124
  62.06300   11.08703    9.40137    1.89203   -0.20637    0.43464   -0.46088    0.89553
  62.20903   11.04178    9.41687    1.81842   -0.19350    0.48290   -0.49015    0.97305
  62.35506   10.94363    9.38049    1.73859   -0.17545    0.53570   -0.51805    1.05374
  62.50109   10.79623    9.29406    1.65383   -0.15166    0.59350   -0.54411    1.13761
  62.64712   10.60432    9.16045    1.56546   -0.12159    0.65685   -0.56791    1.22476
  62.79315   10.37347    8.98330    1.47485   -0.08468    0.72635   -0.58904    1.31539
  62.94      10.11      8.767      1.383     -.4039E-1  0.8027     -.6071      1.410   
  63.09      9.820      8.516      1.292     0.1185E-1  0.8866     -.6219      1.509   
  63.23124    9.50907    8.23424    1.20225    0.07258    0.97895   -0.63301    1.61197
  63.37727    9.18436    7.92729    1.11476    0.14232    1.08046   -0.64030    1.72076
  63.52330    8.85103    7.59906    1.03039    0.22157    1.19196   -0.64355    1.83552
  63.66933    8.51413    7.25360    0.94977    0.31076    1.31421   -0.64266    1.95687
  63.81536    8.17816    6.89459    0.87336    0.41021    1.44783   -0.63755    2.08538
  63.96139    7.84703    6.52548    0.80146    0.52009    1.59326   -0.62824    2.22150
  64.10742    7.52411    6.14949    0.73426    0.64036    1.75070   -0.61481    2.36551
  64.25345    7.21220    5.76967    0.67184    0.77069    1.91998   -0.59745    2.51743
  64.39948    6.91362    5.38903    0.61418    0.91041    2.10044   -0.57644    2.67688
  64.54552    6.63015    5.01056    0.56119    1.05840    2.29085   -0.55217    2.84302
  64.69154    6.36296    4.63717    0.51272    1.21307    2.48933   -0.52509    3.01442
  64.83758    6.11257    4.27172    0.46858    1.37227    2.69319   -0.49575    3.18894
  64.98360    5.87879    3.91693    0.42852    1.53333    2.89894   -0.46474    3.36367
  65.12964    5.66061    3.57531    0.39228    1.69302    3.10227   -0.43266    3.53493
  65.27567    5.45627    3.24907    0.35955    1.84765    3.29814   -0.40012    3.69826
  65.42170    5.26324    2.94002    0.33001    1.99322    3.48095   -0.36766    3.84862
  65.56773    5.07841    2.64956    0.30332    2.12553    3.64477   -0.33581    3.98058
  65.71376    4.89828    2.37865    0.27916    2.24047    3.78370   -0.30499    4.08869
  65.85979    4.71924    2.12778    0.25718    2.33429    3.89229   -0.27553    4.16782
  66.00582    4.53789    1.89703    0.23708    2.40379    3.96587   -0.24772    4.21360
  66.15185    4.35134    1.68611    0.21856    2.44667    4.00105   -0.22173    4.22278
  66.29788    4.15744    1.49443    0.20139    2.46163    3.99591   -0.19766    4.19357
  66.44391    3.95502    1.32113    0.18536    2.44853    3.95022   -0.17556    4.12578
  66.58994    3.74389    1.16519    0.17031    2.40839    3.86549   -0.15542    4.02091
  66.73597    3.52488    1.02548    0.15612    2.34328    3.74480   -0.13719    3.88198
  66.88200    3.29966    0.90078    0.14271    2.25618    3.59257   -0.12078    3.71334
  67.02803    3.07058    0.78986    0.13004    2.15068    3.41419   -0.10608    3.52027
  67.17406    2.84037    0.69151    0.11809    2.03078    3.21561   -0.09298    3.30859
  67.32010    2.61194    0.60453    0.10685    1.90057    3.00293   -0.08135    3.08429
  67.46613    2.38815    0.52781    0.09632    1.76401    2.78210   -0.07106    2.85316
  67.61      2.172     0.4603     0.8651E-1   1.625      2.559     -.6199E-1   2.621   
  67.76      1.964     0.4010     0.7742E-1   1.486      2.337     -.5401E-1   2.391   
  67.90      1.768     0.3490     0.6905E-1   1.350      2.121     -.4700E-1   2.168   
  68.05      1.585     0.3035     0.6139E-1   1.220      1.915     -.4087E-1   1.956   
  68.20      1.415     0.2637     0.5441E-1   1.096      1.719     -.3550E-1   1.755   
  68.34      1.258     0.2290     0.4809E-1  0.9807      1.537     -.3082E-1   1.568   
  68.49      1.115     0.1987     0.4240E-1  0.8735      1.368     -.2674E-1   1.395   
  68.63     0.9848     0.1724     0.3729E-1  0.7751      1.213     -.2319E-1   1.237   
  68.78     0.8677     0.1495     0.3273E-1  0.6856      1.073     -.2010E-1   1.093   
  68.93     0.7627     0.1295     0.2867E-1  0.6045     0.9455     -.1741E-1  0.9630   
  69.07     0.6690     0.1122     0.2507E-1  0.5317     0.8314     -.1508E-1  0.8465   
  69.22     0.5857     0.9717E-1  0.2190E-1  0.4666     0.7294     -.1306E-1  0.7424   
  69.36     0.5119     0.8413E-1  0.1910E-1  0.4087     0.6386     -.1130E-1  0.6499   
  69.51     0.4467     0.7282E-1  0.1663E-1  0.3573     0.5582     -.9782E-2  0.5680   
  69.66     0.3894     0.6301E-1  0.1447E-1  0.3119     0.4872     -.8464E-2  0.4957   
  69.80     0.3390     0.5452E-1  0.1258E-1  0.2719     0.4246     -.7322E-2  0.4320   
  69.95     0.2948     0.4716E-1  0.1093E-1  0.2367     0.3697     -.6333E-2  0.3760   
  70.09     0.2562     0.4079E-1  0.9489E-2  0.2059     0.3216     -.5477E-2  0.3270   
  70.24     0.2225     0.3528E-1  0.8233E-2  0.1790     0.2794     -.4736E-2  0.2842   
  70.39     0.1931     0.3051E-1  0.7139E-2  0.1554     0.2427     -.4095E-2  0.2467   
  70.53     0.1674     0.2638E-1  0.6187E-2  0.1349     0.2106     -.3541E-2  0.2141   
  70.68     0.1452     0.2281E-1  0.5360E-2  0.1170     0.1826     -.3061E-2  0.1857   
  70.82     0.1258     0.1972E-1  0.4643E-2  0.1014     0.1583     -.2646E-2  0.1610   
  70.97     0.1090     0.1704E-1  0.4020E-2  0.8789E-1  0.1372     -.2288E-2  0.1395   
  71.12     0.9434E-1  0.1473E-1  0.3479E-2  0.7613E-1  0.1188     -.1977E-2  0.1208   
  71.26     0.8167E-1  0.1274E-1  0.3011E-2  0.6592E-1  0.1029     -.1709E-2  0.1046   
  71.41     0.7068E-1  0.1101E-1  0.2605E-2  0.5707E-1  0.8907E-1  -.1477E-2  0.9055E-1
  71.55     0.6116E-1  0.9515E-2  0.2254E-2  0.4939E-1  0.7709E-1  -.1277E-2  0.7836E-1
  71.70     0.5291E-1  0.8224E-2  0.1949E-2  0.4274E-1  0.6670E-1  -.1103E-2  0.6780E-1
  71.85     0.4577E-1  0.7107E-2  0.1686E-2  0.3698E-1  0.5770E-1  -.9537E-3  0.5866E-1
  71.99     0.3958E-1  0.6143E-2  0.1458E-2  0.3198E-1  0.4991E-1  -.8242E-3  0.5074E-1
  72.14     0.3423E-1  0.5309E-2  0.1261E-2  0.2766E-1  0.4317E-1  -.7123E-3  0.4388E-1
  72.29     0.2960E-1  0.4588E-2  0.1090E-2  0.2392E-1  0.3733E-1  -.6156E-3  0.3795E-1
  72.43     0.2559E-1  0.3965E-2  0.9422E-3  0.2069E-1  0.3228E-1  -.5320E-3  0.3281E-1
  72.58     0.2213E-1  0.3426E-2  0.8145E-3  0.1788E-1  0.2791E-1  -.4597E-3  0.2837E-1
  72.72     0.1913E-1  0.2961E-2  0.7041E-3  0.1546E-1  0.2413E-1  -.3973E-3  0.2453E-1
  72.87     0.1653E-1  0.2559E-2  0.6086E-3  0.1337E-1  0.2086E-1  -.3433E-3  0.2120E-1
# 
# YPP_PH@anomaly x 001 CPUs * 04/05/2013  15:33 [start]
#                             04/05/2013  15:33 [end]
#
# .-Input file : INPUTS/04_eliashberg
# | electrons                    # [R] Electrons (and holes)
# | eliashberg                   # [R] Eliashberg
# | PhBroad=0.1000E-2      eV    # Phonon broadening (Eliashberg & DOS)
# | PhStps=  500                 # Energy steps
