#  __      __   ______   __       __  _______    ______     
# |  \    /  \ /      \ |  \     /  \|       \  /      \    
#  \$$\  /  $$|  $$$$$$\| $$\   /  $$| $$$$$$$\|  $$$$$$\   
#   \$$\/  $$ | $$__| $$| $$$\ /  $$$| $$__/ $$| $$  | $$   
#    \$$  $$  | $$    $$| $$$$\  $$$$| $$    $$| $$  | $$   
#     \$$$$   | $$$$$$$$| $$\$$ $$ $$| $$$$$$$\| $$  | $$   
#     | $$    | $$  | $$| $$ \$$$| $$| $$__/ $$| $$__/ $$   
#     | $$    | $$  | $$| $$  \$ | $$| $$    $$ \$$    $$   
#      \$$     \$$   \$$ \$$      \$$ \$$$$$$$   \$$$$$$    
#                                                           
#             GPL Version 3.1.2 Revision 297                
#                http://www.yambo-code.org                  
#
# Absorption @ IQ 1 [q->0 dir]: 1.000000  0.000000  0.000000
#
# - Energies      are Perdew & Wang (xc)
# - Wavefunctions are Perdew & Wang (xc)
# - The Green`s function is T-ordered -
# - The gauge is transverse + [r,Vnl] -
#
#  E/ev[1]    e/Im[2]    e/Re[3]    eo/Im[4]   eo/Re[5]
#
   7.50000    0.03735    2.60679    0.03113    2.50660
   7.55853    0.03933    2.62716    0.03266    2.52345
   7.61706    0.04150    2.64856    0.03433    2.54111
   7.67559    0.04388    2.67111    0.03616    2.55963
   7.73411    0.04650    2.69490    0.03816    2.57911
   7.79264    0.04942    2.72009    0.04037    2.59964
   7.85117    0.05267    2.74679    0.04283    2.62133
   7.90970    0.05633    2.77522    0.04558    2.64429
   7.96823    0.06046    2.80554    0.04868    2.66870
   8.02676    0.06518    2.83804    0.05218    2.69471
   8.08529    0.07061    2.87301    0.05620    2.72256
   8.14381    0.07693    2.91082    0.06085    2.75250
   8.20234    0.08437    2.95193    0.06629    2.78485
   8.26087    0.09327    2.99691    0.07275    2.82003
   8.31940    0.10407    3.04648    0.08053    2.85854
   8.37793    0.11744    3.10158    0.09011    2.90104
  8.436455   0.134385   3.163477   0.102130   2.948392
  8.494984   0.156428   3.233776   0.117642   3.001744
  8.553512   0.186059   3.314721   0.138289   3.062625
  8.612041   0.227479   3.409253   0.166832   3.133094
  8.670568   0.288176   3.521178   0.208136   3.215833
  8.729097   0.382290   3.654570   0.271262   3.313902
  8.787625   0.537814   3.809905   0.374000   3.428769
  8.846154   0.809962   3.966452   0.551802   3.550857
  8.904682   1.279937   4.013515   0.863749   3.620803
  8.963211   1.860005   3.635255   1.302316   3.437294
  9.021740   1.904281   2.827190   1.465677   2.866049
  9.080268   1.379511   2.426727   1.121492   2.471181
  9.138797   0.947962   2.482256   0.765802   2.464051
  9.197325   0.730515   2.673497   0.572783   2.597574
  9.255854   0.664447   2.874767   0.501673   2.749942
  9.314382   0.713411   3.030820   0.519290   2.875431
  9.372910   0.818365   3.061902   0.586901   2.919154
  9.431438   0.803464   2.984932   0.585471   2.877331
  9.489966   0.663776   3.010282   0.488739   2.893789
  9.548495   0.557352   3.152976   0.407925   2.995646
  9.607023   0.514377   3.339193   0.371171   3.130324
  9.665552   0.518543   3.542731   0.367032   3.276627
  9.724080   0.560197   3.762427   0.387142   3.432487
  9.782609   0.640054   4.004763   0.429734   3.601638
  9.841137   0.768634   4.278834   0.498547   3.789783
  9.899666   0.969574   4.594438   0.603503   4.003682
  9.958195   1.288845   4.956836   0.764102   4.249961
  10.01672    1.81261    5.34686    1.01698    4.53025
  10.07525    2.68045    5.64988    1.42800    4.82214
  10.13378    3.96238    5.48609    2.08695    5.01853
  10.19231    5.08775    4.35022    2.96112    4.84422
  10.25084    5.12367    2.88737    3.61572    4.15432
  10.30937    4.61646    2.07997    3.78097    3.41080
  10.36789    4.24463    1.62650    3.78614    2.83458
  10.42642    3.92228    1.23548    3.71190    2.30915
  10.48495    3.59418    0.80711    3.60365    1.75241
  10.54348    2.97428    0.41745    3.16459    1.10340
  10.60201    2.23686    0.44783    2.39464    0.86388
  10.66053    1.72488    0.77460    1.77255    1.05529
  10.71906    1.46041    1.18409    1.41424    1.40222
  10.77759    1.38932    1.59329    1.25923    1.77341
  10.83612    1.49334    1.96632    1.26466    2.12755
  10.89465    1.77955    2.23409    1.42378    2.42768
  10.95318    2.17466    2.26265    1.71340    2.59294
  11.01171    2.44503    2.06431    2.00442    2.57809
  11.07023    2.58576    1.86304    2.24270    2.50555
  11.12876    2.72766    1.60065    2.53747    2.33816
  11.18729    2.71615    1.19065    2.73891    1.91378
  11.24582    2.41202    0.88109    2.56244    1.45212
  11.30435    2.09700    0.86941    2.23593    1.31528
  11.36288    1.99115    0.93081    2.10340    1.34211
  11.42140    1.94403    0.82758    2.08991    1.22241
  11.47993    1.70074    0.68011    1.88424    0.98988
  11.53846    1.36215    0.72993    1.50797    0.94888
  11.59699    1.11299    0.93700    1.19682    1.11519
  11.65552    0.98134    1.20065    1.01410    1.36590
  11.71405    0.94652    1.47846    0.93745    1.63858
  11.77258    0.99923    1.75973    0.94771    1.91625
  11.83110    1.15194    2.03809    1.04591    2.19528
  11.88963    1.44097    2.28779    1.25578    2.46528
  11.94816    1.91290    2.42069    1.62307    2.68106
  12.00669    2.52490    2.23539    2.17912    2.70743
  12.06522    2.93090    1.58398    2.76992    2.31036
  12.12375    2.74196    0.84373    2.91731    1.53524
  12.18227    2.21184    0.52432    2.49805    0.98207
  12.24080    1.77646    0.58719    1.99910    0.90182
  12.29933    1.56404    0.79732    1.70476    1.07323
  12.35786    1.54640    0.99716    1.62892    1.28951
  12.41639    1.63964    1.09542    1.69896    1.43476
  12.47492    1.74056    1.10017    1.81511    1.48954
  12.53344    1.84568    1.06817    1.95804    1.50026
  12.59197    1.98650    0.97062    2.16272    1.44170
  12.65050    2.12310    0.72719    2.40721    1.21997
  12.70903    2.07918    0.33372    2.51401    0.76996
  12.76756    1.77487    0.01824    2.30539    0.28821
  12.83      1.383     -.7990E-1   1.883     0.4107E-2
  12.88      1.048     -.1287E-1   1.437     -.3970E-1
  12.94314    0.81024    0.12906    1.08685    0.07257
  13.00167    0.65365    0.28847    0.84994    0.24236
  13.06020    0.55385    0.44182    0.69806    0.41841
  13.11873    0.49367    0.58090    0.60491    0.58121
  13.17726    0.46145    0.70062    0.55188    0.72160
  13.23579    0.44314    0.79660    0.51963    0.83374
  13.29431    0.42094    0.87617    0.48590    0.92595
  13.35284    0.39284    0.95878    0.44720    1.02043
  13.41137    0.37229    1.05138    0.41775    1.12524
  13.46990    0.36766    1.14878    0.40609    1.23488
  13.52843    0.38187    1.24503    0.41458    1.34353
  13.58696    0.41685    1.33314    0.44499    1.44519
  13.64548    0.47041    1.40133    0.49673    1.52944
  13.70401    0.52666    1.43901    0.55769    1.58399
  13.76254    0.56288    1.45620    0.60443    1.61241
  13.82107    0.57493    1.47793    0.62559    1.63866
  13.87960    0.57775    1.52490    0.63293    1.68895
  13.93813    0.60046    1.60212    0.65816    1.77294
  13.99666    0.67026    1.69192    0.73279    1.87381
  14.05518    0.80346    1.76061    0.87682    1.95679
  14.11371    0.99649    1.75296    1.09190    1.96387
  14.17224    1.18314    1.60479    1.31779    1.81895
  14.23077    1.22659    1.34573    1.40305    1.52936
  14.28930    1.09140    1.14073    1.27457    1.27110
  14.34783    0.90266    1.07602    1.05963    1.17059
  14.40635    0.75296    1.10360    0.87905    1.18774
  14.46488    0.65426    1.16617    0.75690    1.25393
  14.52341    0.59564    1.23498    0.68317    1.33202
  14.58194    0.56103    1.29268    0.64003    1.39983
  14.64047    0.52722    1.33962    0.60082    1.45546
  14.69900    0.48817    1.39508    0.55679    1.51961
  14.75752    0.45825    1.46628    0.52302    1.60140
  14.81605    0.44551    1.54459    0.50889    1.69179
  14.87458    0.44771    1.62388    0.51224    1.78384
  14.93311    0.46488    1.70393    0.53309    1.87734
  14.99164    0.50114    1.77987    0.57645    1.96728
  15.05017    0.55353    1.84091    0.64030    2.04147
  15.10870    0.60881    1.88435    0.71082    2.09513
  15.16722    0.66221    1.92204    0.78159    2.13965
  15.22575    0.72589    1.95723    0.86494    2.17849
  15.28428    0.80728    1.97518    0.96884    2.19461
  15.34281    0.89559    1.95253    1.07944    2.16018
  15.40134    0.94765    1.88067    1.14350    2.06646
  15.45987    0.92477    1.80983    1.11582    1.97663
  15.51839    0.86127    1.80127    1.04082    1.96405
  15.57692    0.81837    1.85245    0.99308    2.02333
  15.63545    0.82168    1.92365    1.00270    2.10501
  15.69398    0.86042    1.97839    1.05511    2.16416
  15.75251    0.90249    2.00523    1.10953    2.18778
  15.81104    0.92494    2.02538    1.13793    2.20374
  15.86957    0.93527    2.06606    1.15101    2.24633
  15.92809    0.95757    2.13555    1.17993    2.32510
  15.98662    1.01008    2.22480    1.24776    2.42762
  16.04515    1.10460    2.32500    1.36942    2.54160
  16.10368    1.26187    2.42081    1.57050    2.64515
  16.16221    1.49863    2.46853    1.86797    2.67961
  16.22074    1.79087    2.39982    2.22138    2.55938
  16.27926    2.04527    2.17276    2.50391    2.24604
  16.33779    2.15417    1.84777    2.59111    1.83545
  16.39632    2.10875    1.53989    2.49399    1.47152
  16.45485    1.96446    1.30583    2.29171    1.21262
  16.51338    1.76660    1.16246    2.04237    1.06834
  16.57191    1.55553    1.11599    1.79232    1.03656
  16.63043    1.37359    1.15941    1.58624    1.10315
  16.68896    1.25759    1.26404    1.46146    1.23297
  16.74749    1.22355    1.38738    1.43299    1.37722
  16.80602    1.26689    1.48560    1.49302    1.48521
  16.86455    1.36108    1.51795    1.60659    1.51022
  16.92308    1.45304    1.46329    1.70756    1.43271
  16.98161    1.48348    1.34429    1.72854    1.28750
  17.04013    1.42811    1.21905    1.64960    1.14579
  17.09866    1.30722    1.13766    1.50103    1.06175
  17.15719    1.15834    1.12338    1.32769    1.05647
  17.21572    1.02170    1.17442    1.17381    1.12384
  17.27425    0.92376    1.26636    1.06681    1.23464
  17.33278    0.86766    1.36978    1.00841    1.35555
  17.39130    0.83884    1.46529    0.98072    1.46477
  17.44983    0.81684    1.55285    0.95896    1.56313
  17.50836    0.79456    1.64862    0.93435    1.67115
  17.56689    0.78338    1.76392    0.92102    1.80358
  17.62542    0.79732    1.89624    0.93655    1.95798
  17.68395    0.84497    2.03711    0.99173    2.12454
  17.74247    0.93189    2.17653    1.09378    2.29212
  17.80100    1.06179    2.30149    1.24882    2.44614
  17.85953    1.23370    2.39490    1.45900    2.56567
  17.91806    1.43952    2.43795    1.71687    2.62404
  17.97659    1.66261    2.40979    1.99975    2.59191
  18.03512    1.86586    2.28989    2.25891    2.44561
  18.09365    1.98248    2.08882    2.41439    2.20035
  18.15217    1.96290    1.88494    2.40760    1.95018
  18.21070    1.84470    1.77518    2.28401    1.81214
  18.26923    1.71902    1.78616    2.15552    1.81819
  18.32776    1.64901    1.88090    2.10025    1.92122
  18.38629    1.65474    2.01297    2.14297    2.06152
  18.44482    1.73681    2.14646    2.28392    2.19066
  18.50334    1.88693    2.25074    2.50908    2.26460
  18.56187    2.08644    2.30120    2.78570    2.24786
  18.62040    2.31035    2.28264    3.06752    2.12278
  18.67893    2.52823    2.18876    3.30059    1.89550
  18.73746    2.70527    2.02977    3.43886    1.60649
  18.79599    2.81769    1.83878    3.47537    1.32019
  18.85452    2.87488    1.65635    3.45358    1.08091
  18.91304    2.91173    1.49112    3.42340    0.87391
  18.97157    2.93851    1.31683    3.38179    0.65858
  19.03010    2.92789    1.12287    3.28971    0.43472
  19.08863    2.85609    0.93599    3.13220    0.24342
  19.14716    2.73219    0.79584    2.93643    0.12262
  19.20569    2.59360    0.72142    2.74799    0.07586
  19.26421    2.47435    0.69688    2.59423    0.07451
  19.32274    2.37694    0.69563    2.46787    0.09167
  19.38127    2.28738    0.71721    2.35448    0.13185
  19.43980    2.21665    0.77880    2.26956    0.20944
  19.49833    2.19727    0.87281    2.24304    0.30910
  19.55686    2.24463    0.96293    2.28119    0.39198
  19.61539    2.34325    1.01315    2.36057    0.42736
  19.67391    2.46034    1.00751    2.44712    0.40825
  19.73244    2.56150    0.95478    2.51197    0.34979
  19.79097    2.63020    0.88783    2.54763    0.28392
  19.84950    2.68774    0.83841    2.57927    0.23184
  19.90803    2.77440    0.79987    2.63678    0.17606
  19.96655    2.90435    0.72882    2.71521    0.07742
  20.02508    3.04548    0.58546    2.77306   -0.08144
  20.08361    3.14344    0.37295    2.77042   -0.27420
  20.14214    3.17177    0.13568    2.70694   -0.45563
  20.20067    3.15133   -0.09211    2.61358   -0.60753
  20.25920    3.10364   -0.32066    2.50672   -0.74532
  20.31773    3.00705   -0.56502    2.37088   -0.87693
  20.37625    2.82845   -0.79232    2.19342   -0.97737
  20.43478    2.58522   -0.94269    1.99697   -1.01573
  20.49331    2.33999   -0.99527    1.82341   -0.99206
  20.55184    2.14260   -0.98091    1.69906   -0.93499
  20.61037    2.00481   -0.94444    1.62538   -0.87721
  20.66890    1.91375   -0.91925    1.58908   -0.84293
  20.72742    1.84523   -0.92412    1.56778   -0.84710
  20.78595    1.76995   -0.96062    1.53220   -0.88992
  20.84448    1.66461   -1.01175    1.45808   -0.95168
  20.90301    1.52282   -1.04942    1.34029   -1.00100
  20.96154    1.35919   -1.04866    1.19576   -1.01197
  21.02007    1.20016   -1.00224    1.05180   -0.97767
  21.07860    1.06661   -0.92072    0.92945   -0.90841
  21.13712    0.96681   -0.82013    0.83730   -0.81985
  21.19565    0.90100   -0.71354    0.77580   -0.72498
  21.25418    0.86685   -0.61079    0.74231   -0.63337
  21.31271    0.86058   -0.52056    0.73274   -0.55272
  21.37124    0.87581   -0.45046    0.74109   -0.48937
  21.42977    0.90371   -0.40539    0.75947   -0.44710
  21.48829    0.93472   -0.38681    0.77951   -0.42668
  21.54682    0.95895   -0.39327    0.79284   -0.42589
  21.60535    0.96717   -0.41857    0.79266   -0.43858
  21.66388    0.95525   -0.45271    0.77699   -0.45646
  21.72241    0.92483   -0.48747    0.74803   -0.47360
  21.78094    0.87847   -0.51862    0.70810   -0.48733
  21.83946    0.81673   -0.54245    0.65767   -0.49528
  21.89799    0.74113   -0.55227    0.59792   -0.49268
  21.95652    0.65890   -0.54149    0.53421   -0.47488
  22.01505    0.58055   -0.50966    0.47424   -0.44179
  22.07358    0.51363   -0.46220    0.42342   -0.39754
  22.13211    0.46080   -0.40579    0.38357   -0.34708
  22.19064    0.42168   -0.34558    0.35435   -0.29414
  22.24916    0.39490   -0.28476    0.33478   -0.24109
  22.30769    0.37927   -0.22528    0.32405   -0.18935
  22.36622    0.37414   -0.16857    0.32181   -0.14009
  22.42475    0.37948   -0.11625    0.32813   -0.09474
  22.48328    0.39547   -0.07093    0.34322   -0.05562
  22.54181    0.42157   -0.03679    0.36648   -0.02645
  22.60     0.4546     -.1953E-1  0.3948     -.1211E-1
  22.66     0.4864     -.2418E-1  0.4206     -.1644E-1
  22.71739    0.50395   -0.04968    0.43294   -0.03741
  22.77592    0.49644   -0.08470    0.42352   -0.06441
  22.83445    0.46400   -0.11263    0.39411   -0.08366
  22.89298    0.41742   -0.12270    0.35446   -0.08740
  22.95151    0.36901   -0.11432    0.31449   -0.07614
  23.01003    0.32619   -0.09263    0.27972   -0.05448
  23.06856    0.29137   -0.06341    0.25176   -0.02712
  23.13     0.2642     -.3084E-1  0.2302     0.2632E-2
  23.19     0.2434     0.2581E-2  0.2138     0.3282E-1
  23.24415    0.22765    0.03560    0.20141    0.06248
  23.30268    0.21584    0.06768    0.19226    0.09126
  23.36120    0.20741    0.09854    0.18584    0.11897
  23.41973    0.20199    0.12771    0.18192    0.14522
  23.47826    0.19898    0.15446    0.18001    0.16937
  23.53679    0.19716    0.17816    0.17902    0.19086
  23.59532    0.19478    0.19903    0.17741    0.20988
  23.65384    0.19044    0.21855    0.17395    0.22780
  23.71237    0.18416    0.23878    0.16870    0.24647
  23.77090    0.17721    0.26101    0.16287    0.26705
  23.82943    0.17101    0.28535    0.15775    0.28962
  23.88796    0.16643    0.31130    0.15412    0.31369
  23.94649    0.16378    0.33829    0.15228    0.33877
  24.00502    0.16314    0.36595    0.15232    0.36451
  24.06355    0.16452    0.39410    0.15426    0.39075
  24.12207    0.16797    0.42267    0.15819    0.41743
  24.18060    0.17365    0.45166    0.16430    0.44455
  24.23913    0.18185    0.48108    0.17290    0.47210
  24.29766    0.19300    0.51091    0.18446    0.50000
  24.35619    0.20774    0.54097    0.19961    0.52806
  24.41471    0.22687    0.57087    0.21922    0.55580
  24.47324    0.25136    0.59980    0.24424    0.58228
  24.53177    0.28223    0.62626    0.27562    0.60580
  24.59030    0.32007    0.64779    0.31375    0.62369
  24.64883    0.36427    0.66099    0.35757    0.63235
  24.70736    0.41197    0.66225    0.40349    0.62834
  24.76589    0.45774    0.64975    0.44547    0.61061
  24.82442    0.49556    0.62539    0.47752    0.58226
  24.88294    0.52169    0.59408    0.49680    0.54919
  24.94147    0.53548    0.56134    0.50395    0.51703
  25.00000    0.53862    0.53213    0.50173    0.49015
# 
# YAMBO@anomaly.roma2.infn.it x 001 CPUs * 08/29/2008  10:31 [start]
#                                          08/29/2008  10:31 [end]
# 
# Cpu Timing [Min/Max/Average]: 03s/03s/03s
#
# .-Input file : Inputs/04_alda_g_space
# | optics                       # [R OPT] Optics
# | chi                          # [R CHI] Dyson equation for Chi.
# | alda_fxc                     # [R TDDFT] The ALDA TDDFT kernel
# | FFTGvecs=  773           RL  # [FFT] Plane-waves
# | % QpntsRXd
# |  1 | 1 |                     # [Xd] Transferred momenta
# | %
# | % BndsRnXd
# |   1 | 10 |                   # [Xd] Polarization function bands
# | %
# | NGsBlkXd=  51            RL  # [Xd] Response block size
# | % EnRngeXd
# |   7.50000 | 25.00000 |   eV  # [Xd] Energy range
# | %
# | % DmRngeXd
# |   0.10000 |  0.30000 |   eV  # [Xd] Damping range
# | %
# | ETStpsXd= 300                # [Xd] Total Energy steps
# | % LongDrXd
# | 0.1000E-4 | 0.000    | 0.000    |      # [Xd] [cc] Electric Field
# | %
# | FxcGRLc=  51             RL  # [TDDFT] XC-kernel RL size
